EEG 1, EEG 2, EEG 3, EEG 4, EEG 5, EEG 6, EEG 7, EEG 8, TRIG
236387.800,243694.500,240552.300,750000.100,54754.090,259696.300,239275.300,750000.100,0.000
232447.500,239578.800,235638.900,750000.100,55059.320,255211.700,235162.700,750000.100,0.000
228938.700,235925.600,231613.300,750000.100,55309.210,251220.400,231636.300,750000.100,0.000
225749.900,232594.800,228034.400,750000.100,55423.300,247610.900,228429.400,750000.100,0.000
222867.700,229595.700,224913.900,750000.100,55499.470,244359.800,225544.000,750000.100,0.000
220238.500,226857.000,222037.900,750000.100,55472.290,241401.000,222773.000,750000.100,0.000
217849.700,224364.700,219473.600,750000.100,55432.600,238699.700,220258.200,750000.100,0.000
215669.400,222099.400,217211.000,750000.100,55443.150,236236.600,218096.800,750000.100,0.000
213626.100,219978.600,215056.500,750000.100,55397.370,233957.400,216085.300,750000.100,0.000
211762.900,218049.400,213141.300,750000.100,55374.130,231863.200,214240.000,750000.100,0.000
210024.600,216238.600,211292.500,750000.100,55277.390,229915.700,212380.600,750000.100,0.000
208424.700,214567.600,209612.700,750000.100,55186.190,228103.900,210665.300,750000.100,0.000
206945.800,213034.000,208122.300,743248.100,55153.740,226429.800,209208.200,750000.100,0.000
205528.900,211562.700,206649.400,715721.800,55076.850,224854.600,207828.600,750000.100,0.000
204215.000,210206.500,205321.800,690859.300,55016.410,223386.600,206537.800,750000.100,0.000
202976.700,208928.700,204009.800,667105.100,54904.470,222011.300,205200.900,750000.100,0.000
201836.300,207739.200,202818.300,644404.900,54810.410,220727.800,203965.600,750000.100,0.000
200783.300,206649.800,201776.700,623920.900,54779.750,219538.300,202945.200,750000.100,0.000
199762.900,205587.800,200727.700,606259.600,54717.070,218402.600,201976.700,750000.100,0.000
198816.200,204607.300,199783.200,590174.300,54673.260,217342.600,201060.600,750000.100,0.000
197910.900,203666.100,198813.700,574224.200,54564.540,216334.100,200054.300,749719.000,0.000
197081.500,202802.700,197943.200,558485.900,54482.380,215405.400,199133.500,746378.800,0.000
196305.200,201998.600,197185.200,544177.900,54453.770,214529.100,198389.200,743328.200,0.000
195551.700,201214.500,196419.300,532290.200,54409.600,213687.700,197704.600,741187.600,0.000
194843.400,200484.300,195722.700,521493.800,54367.850,212888.300,197025.500,739476.900,0.000
194164.500,199779.500,194983.100,510190.900,54269.140,212141.200,196246.800,737311.800,0.000
193545.800,199137.500,194317.800,498421.000,54188.320,211452.500,195513.000,734576.800,0.000
192974.800,198547.700,193769.500,487560.100,54174.110,210801.900,194968.700,731960.800,0.000
192406.600,197952.000,193219.200,479624.100,54164.090,210169.300,194541.500,730534.300,0.000
191878.200,197401.900,192700.300,472339.200,54136.290,209574.100,194037.600,729105.800,0.000
191371.300,196881.100,192137.200,463966.400,54052.780,209018.400,193419.400,727028.000,0.000
190914.800,196406.600,191634.000,454887.900,53987.160,208505.500,192844.300,724648.800,0.000
190489.000,195969.000,191234.300,446490.300,53987.070,208021.700,192447.100,722411.000,0.000
190062.000,195528.300,190837.600,440935.200,54001.910,207554.800,192175.100,721183.800,0.000
189657.900,195112.500,190440.800,435806.100,53979.380,207099.200,191789.500,720272.400,0.000
189272.600,194709.100,189992.600,429415.900,53900.250,206671.800,191282.800,718750.100,0.000
188929.700,194349.700,189604.800,422187.300,53843.300,206287.000,190822.300,716597.100,0.000
188611.300,194017.800,189312.200,415522.000,53849.470,205917.800,190536.000,714508.100,0.000
188294.600,193677.100,189017.200,411542.800,53870.570,205558.500,190363.300,713735.100,0.000
187995.500,193367.800,188726.000,407862.400,53861.270,205217.700,190082.300,713253.700,0.000
187700.000,193057.500,188374.400,402871.700,53794.040,204895.000,189674.900,712084.100,0.000
187440.900,192789.700,188080.100,397020.100,53751.390,204608.100,189309.000,710314.600,0.000
187211.100,192556.100,187883.500,391715.600,53778.660,204341.900,189117.000,708647.900,0.000
186969.900,192304.900,187661.500,388777.200,53804.230,204075.500,189004.000,708137.800,0.000
186750.300,192078.300,187450.300,386078.200,53809.770,203822.300,188804.800,707888.400,0.000
186531.000,191848.300,187176.000,382122.700,53755.050,203581.800,188477.000,706996.500,0.000
186344.100,191645.000,186951.200,377303.600,53713.840,203356.900,188172.500,705525.100,0.000
186180.000,191470.700,186813.100,372997.600,53742.360,203153.100,188038.100,704155.600,0.000
186004.900,191283.200,186652.800,370831.500,53775.890,202960.400,187983.700,703836.400,0.000
185848.900,191114.700,186505.100,368871.200,53786.610,202766.600,187841.900,703770.200,0.000
185697.300,190941.000,186291.100,365696.000,53741.730,202584.400,187575.100,703102.100,0.000
185563.100,190787.300,186118.200,361642.000,53709.990,202419.000,187336.500,701850.900,0.000
185440.300,190656.500,186027.900,358062.600,53739.230,202268.000,187249.700,700696.200,0.000
185314.600,190519.700,185913.900,356469.500,53774.900,202124.900,187229.000,700531.600,0.000
185202.500,190405.000,185815.200,355054.300,53797.970,201990.400,187143.200,700590.800,0.000
185076.800,190273.300,185641.000,352454.800,53753.360,201850.400,186917.000,700067.900,0.000
184979.600,190167.800,185513.200,348977.900,53725.640,201726.700,186712.000,698986.800,0.000
184902.700,190093.100,185469.800,345963.700,53771.500,201630.500,186675.700,698011.600,0.000
184793.800,189974.700,185372.800,344824.800,53797.340,201517.900,186677.700,697965.800,0.000
184693.700,189875.100,185290.000,343850.600,53806.200,201405.500,186605.500,698151.900,0.000
184600.300,189782.100,185153.700,341702.600,53774.540,201313.400,186424.300,697773.600,0.000
184525.100,189703.100,185052.300,338655.200,53756.130,201230.100,186262.700,696827.600,0.000
184469.000,189650.300,185031.700,336054.600,53800.110,201160.500,186252.500,695987.100,0.000
184375.600,189554.500,184955.400,335273.300,53815.490,201062.900,186264.100,696048.400,0.000
184301.800,189483.400,184903.700,334640.300,53831.140,200983.100,186226.700,696327.400,0.000
184219.500,189402.300,184778.600,332820.300,53788.940,200901.200,186058.400,696031.500,0.000
184169.300,189349.000,184703.400,330105.700,53772.400,200843.900,185921.600,695177.800,0.000
184136.400,189314.300,184704.500,327823.200,53817.550,200799.000,185933.900,694421.900,0.000
184075.500,189253.500,184656.400,327347.000,53846.070,200740.700,185984.000,694576.400,0.000
184028.900,189211.600,184627.800,327003.100,53866.630,200686.800,185967.000,694941.600,0.000
183978.600,189156.700,184531.600,325465.100,53833.460,200635.500,185826.900,694723.600,0.000
183936.500,189105.100,184462.600,323008.500,53805.570,200579.100,185693.100,693944.400,0.000
183910.300,189080.500,184473.200,320972.500,53849.730,200551.100,185718.500,693253.800,0.000
183866.400,189039.000,184445.200,320752.800,53888.090,200518.600,185793.300,693479.800,0.000
183829.400,189009.500,184430.000,320653.000,53911.880,200480.400,185793.300,693918.400,0.000
183786.300,188964.800,184344.100,319340.400,53874.680,200437.200,185657.100,693775.300,0.000
183770.200,188945.900,184301.100,317095.000,53857.870,200409.300,185543.500,693060.100,0.000
183760.700,188937.300,184323.600,315255.400,53897.480,200390.500,185580.800,692426.100,0.000
183726.900,188900.500,184301.700,315244.100,53927.250,200358.700,185660.600,692722.000,0.000
183705.800,188882.400,184294.300,315335.500,53946.030,200328.800,185664.000,693224.400,0.000
183670.000,188839.800,184212.700,314189.800,53904.360,200294.300,185533.800,693132.400,0.000
183659.500,188830.600,184179.700,312092.400,53890.860,200288.000,185440.200,692456.700,0.000
183655.800,188830.600,184213.900,310391.900,53931.010,200280.300,185480.900,691867.700,0.000
183624.100,188799.200,184200.000,310534.300,53956.310,200251.700,185562.700,692211.500,0.000
183605.700,188785.600,184200.400,310759.500,53975.710,200229.800,185573.700,692754.900,0.000
183585.300,188765.300,184134.500,309733.300,53942.630,200210.400,185455.300,692702.900,0.000
183588.900,188766.700,184111.900,307732.900,53930.380,200207.400,185364.100,692051.100,0.000
183596.600,188772.300,184154.100,306113.900,53972.940,200205.500,185414.600,691464.800,0.000
183583.300,188755.600,184158.400,306397.000,54011.200,200196.000,185519.800,691836.700,0.000
183580.300,188757.500,184173.600,306760.000,54040.080,200195.000,185548.600,692402.800,0.000
183561.300,188738.900,184111.200,305830.200,54005.210,200182.900,185435.200,692348.800,0.000
183556.100,188732.200,184082.400,303906.500,53983.400,200175.600,185338.800,691671.100,0.000
183555.500,188735.500,184116.600,302349.200,54014.780,200167.000,185380.500,691044.900,0.000
183531.300,188707.800,184113.600,302758.700,54042.410,200145.000,185480.700,691411.400,0.000
183526.300,188708.300,184125.800,303282.300,54067.350,200139.000,185505.500,692000.600,0.000
183516.100,188704.800,184072.100,302464.200,54039.730,200140.500,185404.200,691947.800,0.000
183518.500,188703.200,184047.900,300609.900,54022.290,200146.900,185316.500,691262.700,0.000
183529.200,188718.100,184090.100,299090.000,54062.790,200155.200,185373.200,690610.000,0.000
183513.500,188702.900,184095.100,299636.200,54098.020,200142.600,185495.000,691011.800,0.000
183504.000,188692.700,184100.100,300290.200,54111.960,200130.700,185517.800,691652.500,0.000
183493.600,188680.800,184039.700,299559.300,54073.700,200124.400,185405.800,691637.400,0.000
183499.900,188686.100,184018.200,297777.500,54054.750,200134.500,185315.500,690979.100,0.000
183517.300,188705.200,184071.700,296329.100,54096.770,200146.400,185372.300,690360.400,0.000
183514.500,188701.200,184097.500,296973.200,54142.280,200145.900,185501.900,690809.500,0.000
183522.900,188713.800,184125.500,297727.100,54172.050,200150.600,185538.400,691499.800,0.000
183516.100,188705.500,184068.800,297069.100,54129.580,200137.400,185417.800,691512.800,0.000
183532.300,188719.100,184057.000,295356.900,54114.740,200152.400,185332.500,690888.100,0.000
183549.200,188735.700,184104.800,293960.500,54150.410,200162.100,185387.800,690291.600,0.000
183537.400,188717.700,184113.800,294669.700,54180.090,200147.900,185505.400,690768.000,0.000
183534.000,188721.000,184125.500,295476.100,54197.170,200146.400,185534.200,691475.800,0.000
183524.700,188706.500,184062.200,294859.100,54157.920,200146.800,185428.700,691494.600,0.000
183534.100,188709.200,184040.200,293166.500,54133.870,200152.200,185331.800,690848.300,0.000
183560.500,188736.700,184103.200,291816.100,54178.220,200166.400,185389.200,690247.400,0.000
183565.600,188739.000,184138.000,292628.800,54228.640,200167.800,185530.000,690743.300,0.000
183570.000,188744.200,184160.900,293512.000,54248.040,200167.800,185561.000,691443.300,0.000
183567.800,188743.700,184109.500,292948.300,54212.100,200175.300,185457.000,691444.600,0.000
183583.700,188760.500,184094.700,291293.200,54193.240,200191.100,185368.800,690773.400,0.000
183600.200,188781.000,184143.400,289951.500,54233.650,200205.300,185425.800,690112.100,0.000
183593.200,188773.100,184164.700,290818.800,54278.090,200202.700,185564.000,690581.700,0.000
183588.400,188775.300,184177.800,291752.300,54294.630,200202.700,185593.100,691271.900,0.000
183586.100,188772.500,184123.000,291220.500,54256.360,200205.400,185482.600,691254.900,0.000
183606.900,188786.100,184109.100,289580.500,54235.970,200217.500,185389.500,690566.800,0.000
183635.200,188810.900,184168.900,288252.300,54279.520,200236.000,185454.800,689897.700,0.000
183628.900,188803.000,184197.500,289206.800,54325.740,200235.300,185603.200,690400.400,0.000
183628.300,188805.500,184215.700,290221.200,54342.010,200228.800,185630.400,691132.600,0.000
183624.400,188805.100,184163.500,289726.800,54305.710,200232.600,185522.500,691155.700,0.000
183632.100,188808.000,184141.100,288080.800,54280.050,200243.800,185425.700,690485.400,0.000
183647.600,188824.700,184189.500,286718.000,54311.070,200252.600,185475.600,689816.000,0.000
183636.200,188817.600,184214.100,287732.900,54350.860,200247.800,185623.500,690376.600,0.000
183641.000,188828.800,184238.200,288802.300,54375.540,200254.300,185657.500,691170.900,0.000
183631.500,188818.400,184179.500,288307.900,54335.480,200253.000,185542.900,691212.200,0.000
183638.500,188821.300,184150.000,286634.600,54304.730,200258.100,185434.800,690549.700,0.000
183657.500,188842.100,184189.900,285102.600,54332.620,200272.000,185472.200,689805.400,0.000
183648.500,188829.900,184220.400,285990.300,54376.610,200264.100,185639.500,690272.400,0.000
183652.000,188837.000,184255.400,287598.800,54407.550,200262.600,185708.900,691344.900,0.000
183645.400,188826.200,184183.800,287214.800,54351.670,200259.700,185562.100,691462.100,0.000
183661.400,188838.200,184139.400,285096.800,54303.480,200274.100,185397.300,690546.300,0.000
183689.400,188865.900,184188.000,282739.200,54335.130,200296.800,185426.800,689260.000,0.000
183688.300,188866.300,184254.600,283812.000,54407.550,200288.800,185648.200,689715.500,0.000
183692.800,188876.800,184284.900,285127.600,54437.680,200295.300,185698.400,690533.600,0.000
183685.000,188868.600,184224.300,284761.100,54393.960,200295.600,185581.500,690541.200,0.000
183685.500,188867.300,184189.800,283202.500,54355.960,200298.600,185470.800,689829.300,0.000
183701.000,188887.400,184239.100,281947.400,54390.110,200313.200,185529.400,689130.600,0.000
183695.000,188879.200,184267.600,283102.700,54436.870,200312.600,185689.500,689684.000,0.000
183699.000,188886.400,184286.400,284264.000,54455.740,200313.800,185717.700,690445.300,0.000
183701.100,188883.100,184231.900,283860.400,54416.930,200316.600,185606.900,690450.500,0.000
183713.400,188889.800,184212.300,282327.800,54389.040,200322.100,185505.700,689763.800,0.000
183734.100,188915.700,184269.000,281118.600,54428.200,200337.100,185566.300,689096.200,0.000
183723.400,188906.700,184291.800,282183.700,54465.300,200329.400,185706.800,689590.700,0.000
183720.000,188903.900,184305.000,283272.300,54476.390,200325.000,185728.100,690288.100,0.000
183714.300,188897.500,184248.700,282859.800,54434.460,200326.900,185612.500,690247.800,0.000
183730.800,188914.300,184238.700,281415.400,54415.500,200341.700,185530.000,689565.300,0.000
183752.900,188940.200,184294.000,280377.900,54454.480,200359.000,185597.300,688977.800,0.000
183747.500,188933.000,184306.400,281265.400,54488.370,200361.100,185719.100,689359.900,0.000
183748.600,188931.300,184319.500,282132.700,54499.550,200355.500,185738.400,689901.900,0.000
183740.600,188920.000,184261.000,281685.700,54453.680,200346.600,185626.000,689816.200,0.000
183749.700,188925.300,184258.700,280535.500,54438.570,200349.700,185572.000,689294.700,0.000
183765.900,188943.100,184312.500,279995.800,54474.780,200358.300,185638.800,689020.600,0.000
183770.100,188943.700,184306.300,280492.700,54489.000,200370.100,185695.500,689284.800,0.000
183771.400,188946.900,184325.400,281016.900,54499.640,200361.000,185714.300,689677.500,0.000
183762.500,188939.700,184279.300,280645.400,54465.040,200356.200,185625.600,689668.100,0.000
183778.800,188946.700,184288.300,279675.000,54463.340,200364.500,185595.300,689301.400,0.000
183787.900,188958.300,184331.700,279300.500,54492.930,200365.000,185655.000,689196.300,0.000
183775.000,188942.600,184296.900,279629.900,54482.920,200362.100,185670.900,689443.400,0.000
183780.900,188952.900,184323.600,280056.600,54505.890,200369.900,185712.600,689847.100,0.000
183767.900,188937.400,184274.000,279712.300,54471.200,200363.800,185635.000,689915.100,0.000
183774.400,188945.200,184279.600,278834.400,54463.700,200366.600,185604.100,689650.900,0.000
183783.100,188958.400,184328.100,278590.700,54497.760,200372.800,185668.900,689679.000,0.000
183762.800,188929.400,184282.100,278808.300,54474.070,200353.800,185655.800,689920.600,0.000
183774.300,188939.000,184314.500,279150.000,54498.740,200358.900,185700.600,690283.600,0.000
183772.700,188936.800,184281.300,278840.500,54474.870,200363.000,185632.900,690355.500,0.000
183774.700,188944.600,184289.500,278053.500,54471.020,200365.100,185610.800,690123.100,0.000
183784.000,188958.100,184336.300,277920.300,54505.890,200371.200,185678.300,690193.500,0.000
183763.500,188933.000,184284.500,278051.500,54480.950,200364.300,185659.800,690356.900,0.000
183759.200,188931.500,184304.600,278331.500,54493.640,200359.200,185699.000,690634.700,0.000
183751.100,188919.900,184262.600,278043.800,54462.620,200351.200,185625.700,690657.600,0.000
183775.200,188941.300,184291.800,277345.500,54477.820,200369.500,185626.200,690407.400,0.000
183789.700,188959.100,184339.400,277300.500,54511.440,200375.600,185692.800,690453.800,0.000
183779.100,188941.800,184287.500,277365.700,54487.300,200370.800,185662.700,690506.800,0.000
183780.500,188946.100,184317.700,277598.200,54509.380,200370.200,185704.900,690667.300,0.000
183774.400,188944.100,184287.400,277329.800,54491.410,200376.000,185650.200,690604.800,0.000
183787.500,188961.200,184313.200,276695.400,54504.380,200390.400,185656.100,690287.500,0.000
183797.900,188975.400,184360.400,276725.700,54539.870,200399.500,185724.000,690291.000,0.000
183785.200,188955.000,184304.400,276726.300,54507.590,200393.100,185679.200,690249.300,0.000
183802.700,188977.800,184347.500,276925.500,54538.800,200403.000,185731.700,690342.800,0.000
183806.300,188977.800,184320.500,276678.000,54520.380,200403.500,185675.000,690251.300,0.000
183816.600,188984.700,184340.200,276093.400,54525.560,200410.800,185678.000,689944.800,0.000
183824.700,188994.600,184380.800,276192.800,54558.200,200411.200,185737.700,689976.800,0.000
183795.800,188963.400,184306.800,276126.200,54516.980,200397.300,185677.000,689882.300,0.000
183798.000,188969.800,184340.900,276284.800,54543.360,200402.600,185729.900,689943.900,0.000
183792.900,188969.400,184314.100,276057.400,54527.890,200404.700,185679.800,689865.100,0.000
183811.000,188993.200,184348.900,275535.200,54546.840,200421.500,185696.300,689591.300,0.000
183822.300,189002.200,184393.000,275698.600,54580.100,200424.300,185758.600,689677.400,0.000
183811.600,188986.200,184328.000,275589.300,54544.340,200419.300,185698.000,689588.800,0.000
183831.100,189007.200,184371.100,275719.000,54575.270,200430.100,185758.900,689649.500,0.000
183826.100,188998.000,184334.500,275494.800,54545.680,200422.200,185698.600,689575.900,0.000
183837.000,189004.100,184356.000,275013.500,54551.670,200424.200,185706.000,689330.600,0.000
183839.800,189009.300,184391.500,275227.600,54578.050,200422.800,185763.700,689448.400,0.000
183810.000,188975.700,184312.300,275055.900,54533.160,200414.200,185692.300,689335.200,0.000
183820.500,188996.800,184359.600,275151.400,54569.910,200429.800,185755.700,689385.800,0.000
183813.700,188992.900,184333.700,274937.800,54551.940,200428.800,185704.900,689322.600,0.000
183831.600,189011.100,184369.100,274515.000,54571.250,200438.200,185725.500,689121.100,0.000
183842.600,189027.300,184411.600,274781.000,54603.880,200447.400,185789.500,689277.700,0.000
183828.700,189006.900,184338.400,274561.900,54559.180,200445.300,185712.400,689148.500,0.000
183841.100,189013.900,184376.100,274614.200,54581.980,200444.600,185762.400,689168.700,0.000
183843.200,189004.300,184344.600,274408.200,54554.440,200433.600,185702.900,689097.100,0.000
183874.800,189026.300,184385.300,274017.200,54575.360,200446.500,185730.800,688892.800,0.000
183895.000,189044.900,184434.100,274333.300,54613.810,200453.000,185794.900,689073.800,0.000
183885.100,189027.100,184363.300,274071.700,54574.830,200451.400,185712.400,688915.800,0.000
183892.100,189036.600,184402.500,274102.300,54605.850,200457.500,185773.500,688904.100,0.000
183881.200,189031.900,184372.900,273911.200,54590.650,200460.700,185736.700,688820.100,0.000
183890.800,189044.800,184400.900,273556.200,54606.480,200466.500,185762.600,688613.400,0.000
183903.900,189056.300,184441.200,273910.400,54638.930,200473.600,185825.200,688786.800,0.000
183895.300,189039.300,184367.800,273605.400,54592.710,200471.400,185734.900,688574.500,0.000
183913.100,189052.500,184412.500,273610.000,54620.070,200471.200,185791.300,688508.400,0.000
183918.900,189042.900,184385.700,273430.300,54596.820,200462.500,185740.400,688394.100,0.000
183942.600,189055.200,184417.800,273117.100,54610.590,200466.600,185768.100,688175.800,0.000
183960.000,189069.800,184457.900,273522.800,54641.520,200469.900,185826.600,688347.600,0.000
183933.200,189032.100,184362.400,273173.100,54576.790,200451.300,185711.600,688095.200,0.000
183938.100,189048.300,184402.700,273153.600,54607.370,200461.300,185775.100,688001.800,0.000
183928.700,189047.300,184378.600,272990.600,54594.500,200462.200,185737.500,687886.900,0.000
183927.400,189049.500,184408.500,272722.700,54610.770,200465.900,185770.200,687717.000,0.000
183926.300,189057.900,184444.300,273165.800,54637.770,200465.600,185826.800,687903.900,0.000
183899.200,189033.900,184356.900,272777.600,54583.050,200459.100,185717.900,687723.100,0.000
183890.100,189025.800,184389.700,272725.800,54599.590,200444.900,185765.900,687646.800,0.000
183871.100,189013.600,184356.900,272560.400,54570.980,200431.100,185713.400,687602.600,0.000
183881.600,189028.100,184394.200,272321.800,54591.720,200439.500,185754.900,687606.100,0.000
183881.900,189036.700,184427.700,272795.800,54620.430,200445.800,185812.500,687781.800,0.000
183848.200,189002.200,184324.800,272357.900,54554.620,200437.600,185692.000,687648.300,0.000
183855.800,189015.700,184366.000,272287.400,54584.660,200445.600,185759.300,687612.800,0.000
183836.000,188998.200,184328.000,272129.000,54554.710,200429.500,185707.600,687605.400,0.000
183846.300,189011.400,184369.200,271928.800,54577.870,200436.700,185748.900,687666.500,0.000
183851.500,189020.000,184405.800,272443.600,54605.230,200439.600,185802.500,687911.300,0.000
183825.700,188989.500,184308.800,271971.300,54538.710,200427.300,185675.400,687742.300,0.000
183834.300,189004.000,184354.300,271883.300,54569.640,200432.000,185739.100,687728.200,0.000
183832.200,189005.800,184334.900,271750.800,54561.060,200437.600,185713.300,687734.900,0.000
183843.900,189018.500,184379.300,271595.100,54586.720,200445.800,185759.800,687765.700,0.000
183845.800,189026.800,184414.100,272151.700,54610.500,200444.400,185806.300,688133.600,0.000
183826.400,188995.800,184318.800,271645.900,54546.840,200434.500,185676.800,687938.900,0.000
183840.500,189011.200,184367.300,271538.200,54580.460,200441.400,185742.400,687917.400,0.000
183827.800,188999.800,184337.400,271411.100,54558.290,200432.400,185702.000,687920.800,0.000
183836.200,189008.700,184375.100,271285.800,54578.400,200435.800,185748.500,687891.100,0.000
183838.800,189011.100,184404.800,271878.800,54605.050,200434.500,185803.900,688256.800,0.000
183820.500,188992.100,184306.700,271321.200,54544.880,200433.800,185677.200,687979.100,0.000
183849.000,189024.500,184370.700,271199.400,54595.750,200462.400,185770.700,687891.600,0.000
183840.700,189003.600,184343.200,271079.100,54572.140,200445.900,185732.100,687841.100,0.000
183853.900,189017.500,184388.000,270992.000,54596.200,200448.300,185779.000,687795.500,0.000
183858.400,189027.500,184419.900,271617.000,54623.110,200449.800,185826.000,688096.900,0.000
183829.600,188995.700,184310.100,271011.900,54548.810,200436.000,185675.900,687795.600,0.000
183840.000,189008.700,184359.900,270851.100,54584.660,200446.800,185750.700,687631.100,0.000
183833.500,189005.600,184341.900,270740.300,54575.630,200445.200,185724.300,687601.500,0.000
183850.800,189025.400,184394.100,270693.800,54611.750,200457.400,185791.100,687647.300,0.000
183853.900,189036.100,184427.700,271364.800,54639.820,200460.900,185847.600,687881.800,0.000
183834.700,189010.700,184323.800,270724.300,54572.770,200459.800,185703.500,687660.100,0.000
183845.000,189026.400,184374.200,270541.600,54608.270,200469.400,185779.500,687546.800,0.000
183843.900,189028.900,184360.700,270448.900,54595.210,200464.800,185748.500,687554.800,0.000
183858.000,189046.800,184410.000,270441.700,54621.320,200464.800,185805.100,687644.600,0.000
183849.900,189033.400,184427.500,271148.900,54635.980,200457.700,185844.300,687920.100,0.000
183824.200,189003.900,184311.900,270461.100,54556.950,200450.300,185683.800,687701.900,0.000
183837.100,189018.700,184363.200,270248.700,54588.150,200453.400,185758.100,687604.300,0.000
183829.500,189017.700,184345.800,270154.900,54573.660,200451.600,185730.400,687604.600,0.000
183845.000,189031.700,184398.900,270186.600,54607.550,200454.800,185793.700,687767.600,0.000
183852.600,189044.700,184433.700,270940.100,54641.430,200463.800,185844.000,688131.100,0.000
183825.300,189013.500,184318.200,270196.000,54563.650,200456.700,185675.400,687826.900,0.000
183838.800,189029.400,184372.500,269967.200,54602.010,200463.200,185756.100,687722.700,0.000
183831.800,189022.500,184350.400,269881.200,54589.310,200459.700,185731.400,687722.900,0.000
183833.700,189024.800,184391.700,269932.100,54612.550,200454.900,185793.400,687823.600,0.000
183836.000,189035.200,184421.300,270708.200,54638.300,200460.600,185842.800,688238.100,0.000
183814.900,189004.000,184303.000,269915.100,54555.700,200448.600,185666.100,687882.600,0.000
183833.400,189022.100,184361.900,269656.900,54595.390,200457.600,185749.000,687709.200,0.000
183835.200,189023.600,184350.800,269579.100,54589.580,200459.900,185734.600,687691.100,0.000
183846.300,189032.900,184402.100,269658.900,54620.780,200463.000,185809.100,687792.200,0.000
183847.900,189043.200,184431.400,270460.100,54646.170,200466.100,185856.000,688135.400,0.000
183819.100,189010.500,184305.000,269622.500,54555.960,200450.300,185665.800,687784.100,0.000
183837.100,189027.500,184363.700,269340.500,54598.430,200462.200,185753.400,687578.900,0.000
183828.200,189019.000,184344.000,269254.000,54587.790,200457.200,185733.300,687553.800,0.000
183842.000,189035.200,184402.900,269365.200,54627.840,200468.000,185814.700,687659.800,0.000
183837.600,189034.100,184422.900,270185.300,54647.610,200469.500,185857.900,687962.900,0.000
183805.600,188991.900,184285.800,269310.300,54546.840,200450.700,185657.400,687643.100,0.000
183816.200,189006.900,184336.300,268995.400,54578.400,200452.800,185732.600,687587.400,0.000
183816.200,189004.800,184322.500,268903.500,54570.800,200450.600,185720.300,687601.000,0.000
183837.800,189024.800,184385.000,269023.000,54610.410,200454.300,185801.800,687644.800,0.000
183842.000,189028.500,184410.900,269834.700,54632.050,200447.300,185841.200,687953.900,0.000
183814.800,188993.400,184283.500,268925.400,54541.300,200432.900,185646.300,687636.200,0.000
183831.200,189015.600,184346.600,268594.400,54583.230,200448.000,185733.100,687596.400,0.000
183824.900,189011.000,184334.300,268501.600,54579.210,200453.000,185723.700,687612.100,0.000
183834.900,189025.800,184392.300,268621.300,54619.710,200461.100,185810.300,687641.200,0.000
183842.700,189041.000,184421.800,269440.400,54649.480,200473.500,185861.100,687947.300,0.000
183816.900,189009.800,184294.100,268506.200,54559.800,200467.500,185664.600,687591.900,0.000
183813.200,189003.800,184336.800,268156.700,54581.980,200453.000,185729.900,687537.800,0.000
183800.900,188995.100,184315.200,268053.100,54569.550,200446.900,185713.000,687546.900,0.000
183818.900,189019.100,184378.400,268186.300,54611.660,200457.000,185801.500,687549.200,0.000
183818.300,189012.000,184397.500,268994.900,54624.180,200444.000,185829.600,687823.200,0.000
183801.400,188979.800,184274.600,268064.300,54533.700,200433.600,185631.600,687468.100,0.000
183829.500,189008.500,184344.500,267731.100,54579.570,200441.600,185716.700,687385.200,0.000
183834.700,189012.100,184341.600,267654.000,54579.480,200447.100,185712.800,687393.900,0.000
183852.300,189033.500,184405.300,267796.900,54621.230,200456.400,185803.700,687424.400,0.000
183848.600,189035.700,184423.300,268609.300,54635.800,200450.900,185834.400,687699.400,0.000
183826.600,189005.800,184295.800,267683.700,54546.480,200444.100,185635.000,687365.500,0.000
183831.200,189021.500,184349.400,267346.900,54585.730,200455.900,185725.900,687244.800,0.000
183813.700,189001.200,184326.800,267243.400,54570.270,200441.900,185706.800,687234.300,0.000
183820.900,189014.200,184382.600,267373.400,54607.730,200443.100,185788.300,687324.700,0.000
183822.000,189023.000,184407.100,268181.900,54632.760,200447.100,185828.200,687589.400,0.000
183802.500,188993.800,184282.800,267254.700,54545.050,200443.300,185632.100,687320.900,0.000
183812.500,189001.200,184334.200,266917.000,54579.740,200445.900,185715.500,687172.500,0.000
183809.200,189001.400,184323.300,266819.800,54577.510,200449.400,185711.200,687155.700,0.000
183832.800,189029.800,184394.800,266963.100,54628.560,200467.700,185810.400,687300.500,0.000
183835.500,189038.200,184414.300,267760.900,54646.350,200468.400,185838.000,687556.600,0.000
183815.200,189007.100,184287.100,266837.000,54552.920,200462.600,185632.700,687275.700,0.000
183826.900,189011.700,184341.200,266521.700,54588.150,200457.300,185715.500,687124.700,0.000
183813.700,189000.900,184319.400,266428.900,54574.380,200450.700,185699.500,687118.900,0.000
183820.600,189012.000,184375.400,266567.900,54607.550,200447.400,185778.000,687276.900,0.000
183836.800,189034.800,184411.800,267370.000,54639.560,200464.800,185824.500,687515.400,0.000
183823.500,189014.800,184294.900,266482.100,54556.680,200467.700,185634.300,687226.700,0.000
183828.400,189025.800,184345.500,266183.600,54591.370,200473.300,185721.000,687063.800,0.000
183818.400,189012.500,184326.900,266095.700,54578.940,200463.200,185706.700,687083.200,0.000
183833.000,189025.100,184386.800,266234.000,54617.650,200462.300,185794.800,687222.100,0.000
183829.800,189024.400,184401.700,267013.300,54628.830,200454.600,185820.100,687463.600,0.000
183801.600,188987.800,184272.500,266138.700,54536.200,200443.400,185615.300,687180.400,0.000
183813.400,189005.000,184332.100,265877.200,54581.710,200456.600,185706.400,687056.700,0.000
183814.400,189011.000,184327.000,265810.200,54586.810,200465.300,185709.500,687064.400,0.000
183825.800,189028.500,184384.600,265944.000,54626.410,200464.500,185799.600,687243.500,0.000
183831.400,189037.500,184406.200,266711.800,54645.190,200466.600,185831.100,687500.000,0.000
183819.000,189008.400,184288.900,265875.400,54555.610,200460.000,185629.200,687238.700,0.000
183829.600,189014.900,184344.800,265628.800,54591.720,200460.400,185709.800,687127.700,0.000
183824.500,189011.200,184333.300,265548.300,54585.460,200454.800,185701.300,687140.100,0.000
183840.000,189039.300,184397.700,265663.300,54629.270,200469.200,185798.300,687331.600,0.000
183839.900,189038.400,184410.200,266396.000,54637.770,200463.000,185821.800,687622.200,0.000
183817.100,189000.500,184279.400,265583.500,54537.720,200443.500,185611.000,687337.400,0.000
183818.000,189004.300,184325.000,265344.100,54568.840,200445.400,185688.200,687285.700,0.000
183804.500,188989.400,184303.800,265239.500,54558.290,200438.800,185676.900,687349.400,0.000
183818.000,189006.900,184363.300,265306.600,54598.430,200441.800,185767.100,687455.800,0.000
183818.200,189010.300,184377.800,265991.700,54613.630,200436.300,185791.400,687804.200,0.000
183802.800,188983.000,184263.700,265218.500,54527.170,200429.800,185594.500,687524.500,0.000
183816.100,189000.500,184324.800,265001.000,54570.360,200443.900,185685.900,687535.800,0.000
183804.800,188991.300,184305.400,264872.000,54562.040,200443.900,185680.100,687605.100,0.000
183815.000,189006.300,184360.400,264897.600,54598.160,200445.600,185764.700,687661.600,0.000
183814.000,189007.800,184373.400,265527.600,54609.610,200434.500,185782.200,687980.600,0.000
183800.200,188977.400,184261.200,264781.300,54523.510,200427.600,185588.600,687630.400,0.000
183817.600,189001.000,184324.700,264577.600,54569.200,200444.700,185683.500,687580.300,0.000
183812.400,189000.500,184312.600,264424.800,54568.480,200449.700,185680.300,687591.300,0.000
183821.600,189015.400,184367.100,264385.300,54608.090,200454.100,185769.100,687586.400,0.000
183829.000,189020.000,184386.800,264962.600,54627.400,200453.700,185796.900,687828.800,0.000
183813.000,188990.600,184272.200,264257.400,54544.520,200451.700,185610.800,687443.100,0.000
183819.900,189007.300,184326.000,264078.800,54583.770,200460.600,185696.200,687306.900,0.000
183808.600,189002.600,184305.600,263912.100,54571.610,200452.800,185676.900,687253.700,0.000
183819.200,189013.300,184361.100,263850.000,54610.680,200453.300,185762.600,687301.800,0.000
183826.500,189022.200,184385.700,264388.400,54629.990,200453.200,185788.500,687507.900,0.000
183808.800,188990.200,184272.900,263748.300,54540.760,200445.900,185596.300,687231.900,0.000
183830.000,189017.800,184336.900,263625.000,54588.680,200467.100,185692.000,687079.300,0.000
183825.500,189017.500,184322.100,263465.300,54584.300,200467.500,185684.100,687075.900,0.000
183840.800,189037.700,184378.000,263377.100,54627.220,200477.400,185775.800,687223.800,0.000
183845.500,189047.000,184398.600,263874.300,54646.800,200487.200,185806.800,687519.800,0.000
183825.200,189022.100,184288.900,263282.000,54558.730,200486.700,185615.800,687197.400,0.000
183824.100,189024.800,184330.900,263195.800,54581.800,200464.900,185675.600,687050.900,0.000
183823.300,189012.500,184318.100,263037.400,54578.220,200452.800,185665.800,687045.800,0.000
183848.800,189042.500,184388.100,262926.300,54631.870,200478.700,185770.100,687182.300,0.000
183855.100,189052.700,184411.200,263422.100,54653.410,200485.000,185802.500,687506.500,0.000
183836.900,189020.100,184302.200,262924.300,54571.250,200479.300,185620.900,687216.600,0.000
183837.600,189027.700,184345.500,262877.700,54600.660,200479.000,185696.300,687075.600,0.000
183827.900,189021.900,184323.800,262724.800,54589.040,200472.100,185679.800,687082.000,0.000
183847.200,189048.100,184386.000,262606.500,54635.090,200484.900,185772.100,687235.600,0.000
183852.700,189053.200,184407.200,263088.400,54649.210,200485.000,185798.700,687487.800,0.000
183831.600,189016.100,184296.800,262671.100,54559.890,200468.000,185610.600,687232.900,0.000
183845.000,189032.000,184351.300,262702.100,54600.480,200475.600,185698.000,687133.100,0.000
183844.900,189031.300,184337.000,262574.600,54594.940,200473.200,185681.600,687128.800,0.000
183851.500,189045.200,184384.600,262437.000,54627.580,200475.800,185761.300,687262.500,0.000
183861.000,189054.900,184409.300,262919.100,54649.840,200484.100,185795.200,687479.300,0.000
183848.800,189025.700,184308.100,262576.100,54567.850,200469.100,185613.500,687262.900,0.000
183863.500,189048.300,184365.600,262658.700,54613.000,200488.300,185707.300,687197.200,0.000
183848.800,189035.100,184335.100,262527.400,54593.160,200471.600,185682.500,687177.400,0.000
183856.100,189055.000,184381.700,262393.300,54626.410,200479.300,185761.000,687277.400,0.000
183854.500,189044.800,184393.900,262857.300,54635.450,200470.300,185777.900,687518.100,0.000
183851.100,189021.400,184304.400,262565.300,54564.460,200469.500,185618.000,687293.800,0.000
183869.300,189044.000,184358.800,262674.500,54602.810,200485.100,185705.300,687247.300,0.000
183864.000,189043.200,184338.800,262557.400,54590.650,200484.300,185685.400,687258.300,0.000
183865.300,189047.400,184380.800,262407.200,54618.990,200477.500,185761.300,687315.800,0.000
183866.800,189049.500,184400.300,262863.500,54632.410,200471.300,185783.000,687573.600,0.000
183844.700,189009.400,184299.200,262616.300,54551.040,200457.400,185611.600,687376.600,0.000
183851.100,189025.900,184348.100,262765.700,54586.630,200461.100,185687.400,687400.700,0.000
183853.600,189039.000,184337.800,262654.800,54589.760,200477.500,185683.600,687453.100,0.000
183863.200,189054.600,184387.800,262491.900,54627.580,200485.200,185771.500,687492.200,0.000
183862.200,189045.500,184403.500,262940.500,54639.200,200472.200,185792.500,687739.800,0.000
183858.900,189031.900,184322.000,262762.900,54578.130,200477.500,185642.200,687572.900,0.000
183874.000,189046.900,184370.000,262943.300,54615.060,200485.700,185721.800,687561.900,0.000
183869.900,189048.600,184350.900,262831.800,54609.160,200491.100,185711.400,687576.200,0.000
183878.800,189061.700,184399.100,262661.300,54641.790,200486.900,185784.100,687694.900,0.000
183881.600,189072.000,184418.300,263100.100,54657.890,200491.900,185809.600,688009.400,0.000
183860.900,189031.700,184319.700,262942.400,54579.570,200479.700,185650.600,687773.500,0.000
183858.400,189030.000,184358.200,263151.800,54608.800,200478.500,185730.600,687742.600,0.000
183842.600,189018.300,184327.300,263037.800,54592.620,200476.200,185708.400,687765.800,0.000
183858.600,189048.700,184388.300,262848.800,54638.210,200491.500,185799.200,687903.300,0.000
183853.900,189044.600,184403.400,263270.700,54649.040,200476.900,185815.300,688416.100,0.000
183832.700,189008.100,184305.100,263131.100,54571.250,200467.600,185652.600,688221.700,0.000
183848.700,189030.300,184353.600,263352.400,54608.890,200477.600,185737.700,688288.400,0.000
183851.300,189036.300,184334.000,263228.300,54600.570,200481.800,185720.100,688413.800,0.000
183867.400,189053.800,184381.400,263001.300,54632.940,200488.100,185796.600,688617.800,0.000
183867.700,189042.000,184392.500,263391.700,54638.210,200475.900,185810.800,689189.200,0.000
183850.300,189020.400,184303.200,263267.600,54567.590,200471.600,185654.000,689059.100,0.000
183860.900,189049.900,184357.300,263493.700,54610.590,200486.900,185740.400,689176.800,0.000
183840.600,189019.000,184320.500,263337.000,54585.020,200463.200,185706.500,689338.300,0.000
183833.200,189021.300,184355.500,263066.900,54608.530,200459.300,185772.500,689564.300,0.000
183827.300,189009.800,184369.800,263426.800,54617.120,200443.700,185786.200,690141.100,0.000
183809.700,188986.300,184281.300,263312.900,54546.930,200434.100,185632.400,690016.200,0.000
183822.600,189005.100,184328.000,263532.300,54581.530,200447.200,185711.200,690127.100,0.000
183824.100,189010.200,184306.700,263347.700,54572.590,200452.500,185690.300,690242.600,0.000
183841.200,189034.000,184356.600,263043.200,54608.270,200464.800,185770.800,690414.700,0.000
183841.900,189027.000,184370.500,263346.900,54616.580,200458.700,185787.300,690915.900,0.000
183833.500,189009.600,184295.200,263234.700,54554.710,200461.000,185641.400,690743.300,0.000
183828.700,189004.900,184325.400,263431.300,54569.820,200450.500,185693.500,690798.700,0.000
183828.000,189000.100,184300.800,263221.200,54560.880,200431.100,185668.000,690874.700,0.000
183835.400,189023.900,184350.000,262897.000,54605.400,200453.900,185753.900,691018.800,0.000
183829.600,189012.700,184364.600,263188.100,54615.680,200449.400,185779.100,691503.400,0.000
183824.400,188995.000,184294.100,263106.700,54556.860,200446.600,185635.600,691340.600,0.000
183824.600,189002.600,184329.400,263329.000,54578.670,200437.000,185699.500,691414.500,0.000
183825.500,189005.700,184310.300,263132.900,54571.880,200445.500,185682.000,691522.800,0.000
183844.100,189027.900,184360.800,262802.300,54607.910,200457.400,185758.500,691691.900,0.000
183842.000,189027.000,184374.400,263102.000,54619.440,200452.200,185781.400,692203.500,0.000
183825.200,188994.900,184284.700,263032.600,54546.930,200434.800,185630.500,692062.400,0.000
183843.500,189034.700,184339.100,263292.800,54591.550,200458.900,185716.300,692167.200,0.000
183829.600,189009.900,184304.700,263098.800,54572.410,200445.300,185685.600,692293.900,0.000
183846.100,189023.900,184355.300,262773.400,54608.090,200449.700,185758.700,692492.700,0.000
183853.600,189041.300,184382.000,263080.800,54627.580,200453.300,185786.500,693037.300,0.000
183835.600,189020.000,184307.000,263051.700,54571.160,200456.300,185655.200,692929.900,0.000
183857.300,189045.300,184366.200,263339.600,54620.430,200479.800,185746.600,693062.800,0.000
183842.000,189027.900,184326.200,263132.700,54595.480,200465.800,185708.500,693179.700,0.000
183858.000,189046.000,184371.800,262787.900,54628.200,200468.000,185779.500,693358.500,0.000
183860.900,189046.800,184390.000,263084.800,54639.290,200462.200,185799.900,693864.900,0.000
183864.200,189042.500,184319.500,263049.100,54579.570,200463.200,185661.200,693686.300,0.000
183885.500,189088.900,184381.700,263337.300,54633.750,200490.500,185749.400,693735.700,0.000
183826.700,189019.200,184300.100,263066.700,54572.500,200446.800,185687.500,693733.800,0.000
183826.800,188994.600,184326.900,262678.500,54586.720,200429.600,185746.000,693806.300,0.000
183841.100,189017.900,184362.200,262986.300,54615.950,200441.000,185783.200,694265.300,0.000
183822.400,188973.000,184280.400,262977.100,54549.080,200423.900,185638.800,694061.100,0.000
183821.300,188993.000,184318.900,263261.400,54578.050,200431.800,185710.800,694076.600,0.000
183820.400,189012.100,184297.800,263065.500,54572.050,200441.300,185689.500,694108.900,0.000
183828.700,189049.500,184347.600,262716.800,54611.210,200452.400,185769.100,694229.100,0.000
183846.900,189050.900,184375.400,263033.600,54632.140,200453.600,185798.700,694710.100,0.000
183801.900,189019.700,184275.900,263022.200,54547.020,200423.000,185636.400,694516.800,0.000
183784.400,188950.800,184290.400,263326.300,54559.360,200404.600,185696.900,694601.600,0.000
183807.700,188993.300,184288.900,263138.300,54565.980,200427.000,185683.300,694679.200,0.000
183833.400,189020.800,184345.200,262798.100,54608.270,200445.300,185765.400,694817.300,0.000
183828.200,189019.300,184354.900,263087.500,54611.040,200438.100,185780.400,695288.900,0.000
183804.600,188978.700,184268.100,263083.200,54533.250,200409.200,185625.500,695102.200,0.000
183811.700,188989.300,184311.900,263385.000,54569.460,200415.900,185703.000,695156.800,0.000
183804.300,188980.100,184279.700,263163.700,54555.520,200418.000,185676.100,695203.800,0.000
183827.400,189019.800,184340.700,262793.400,54604.870,200444.000,185763.000,695297.600,0.000
183796.800,188988.000,184336.200,263065.800,54595.930,200421.000,185772.800,695720.700,0.000
183785.800,188968.200,184263.000,263049.200,54532.090,200413.300,185636.600,695463.500,0.000
183819.500,189017.500,184332.700,263356.400,54586.450,200441.700,185727.800,695462.700,0.000
183807.000,189004.100,184299.000,263129.400,54571.250,200440.100,185697.800,695453.400,0.000
183818.600,189009.800,184336.500,262727.100,54593.160,200435.700,185755.600,695501.500,0.000
183837.600,189029.900,184366.400,263019.300,54610.590,200430.300,185773.900,695927.900,0.000
183825.000,188997.300,184287.700,263013.500,54546.840,200419.400,185636.300,695651.300,0.000
183825.500,189003.500,184325.000,263291.000,54575.630,200420.600,185706.300,695595.600,0.000
183815.300,188990.200,184290.000,263051.300,54559.980,200421.900,185679.000,695542.900,0.000
183829.900,189029.500,184340.100,262639.800,54603.530,200447.000,185763.100,695518.600,0.000
183829.700,189024.400,184361.900,262909.200,54621.320,200442.500,185790.700,695822.100,0.000
183816.500,189011.500,184293.300,262912.900,54562.220,200432.800,185652.300,695466.800,0.000
183822.400,189021.500,184341.800,263202.600,54599.770,200441.000,185728.700,695343.300,0.000
183813.700,189028.100,184314.400,262957.500,54587.700,200443.600,185693.900,695205.600,0.000
183824.000,189048.200,184358.000,262547.500,54620.340,200449.700,185766.800,695134.400,0.000
183824.900,189028.900,184371.800,262815.100,54628.650,200441.400,185790.500,695415.800,0.000
183821.100,189019.600,184307.100,262820.700,54577.870,200447.100,185671.500,695039.300,0.000
183818.900,189007.500,184332.500,263117.000,54593.330,200431.300,185732.800,694932.900,0.000
183809.500,189012.900,184296.200,262854.500,54570.800,200432.200,185692.100,694792.800,0.000
183809.000,189018.100,184334.900,262430.200,54600.040,200444.500,185764.500,694723.200,0.000
183825.800,189025.800,184366.100,262703.200,54621.680,200443.200,185795.800,695035.900,0.000
183807.400,188982.500,184286.500,262715.800,54554.890,200421.100,185656.700,694703.100,0.000
183820.800,189019.700,184336.700,263027.700,54595.750,200438.100,185738.800,694631.800,0.000
183817.800,189027.700,184308.800,262788.500,54582.430,200446.800,185706.700,694540.800,0.000
183833.200,189017.200,184352.600,262409.700,54614.340,200445.300,185779.800,694559.800,0.000
183837.600,189032.100,184375.900,262706.700,54632.670,200451.100,185810.200,694941.900,0.000
183824.700,189010.300,184305.300,262745.800,54573.480,200446.800,185685.300,694672.400,0.000
183839.700,189031.500,184351.200,263092.200,54611.840,200459.800,185769.500,694667.400,0.000
183832.500,189031.900,184314.100,262881.000,54593.780,200458.600,185733.400,694649.100,0.000
183851.100,189053.600,184363.700,262498.200,54632.410,200469.700,185807.800,694680.000,0.000
183857.700,189038.000,184384.200,262794.200,54645.460,200453.700,185829.600,695064.200,0.000
183843.200,189017.600,184316.700,262842.800,54590.560,200450.800,185704.200,694802.400,0.000
183839.200,189012.000,184349.500,263193.100,54612.730,200445.200,185767.100,694803.400,0.000
183830.400,189014.000,184315.600,262979.300,54593.160,200445.000,185727.300,694780.100,0.000
183848.100,189043.400,184367.200,262610.200,54631.330,200458.800,185806.400,694831.200,0.000
183866.700,189060.600,184402.700,262937.000,54660.390,200473.500,185847.000,695246.900,0.000
183870.600,189047.000,184346.500,263024.100,54615.420,200481.000,185734.300,695020.400,0.000
183865.700,189048.800,184377.000,263400.000,54641.790,200477.400,185809.100,695050.100,0.000
183848.800,189041.800,184331.300,263196.700,54611.130,200464.200,185760.100,695037.900,0.000
183873.400,189074.600,184385.700,262846.200,54655.020,200481.600,185841.400,695086.000,0.000
183886.100,189075.000,184413.200,263192.600,54681.040,200492.800,185873.400,695491.400,0.000
183879.800,189052.100,184350.900,263299.300,54630.710,200488.300,185754.300,695250.100,0.000
183884.500,189062.000,184394.800,263692.800,54661.550,200480.200,185830.300,695254.600,0.000
183877.200,189059.700,184365.200,263513.900,54649.210,200494.000,185798.800,695232.400,0.000
183899.100,189098.000,184421.900,263152.800,54690.160,200510.500,185875.200,695231.300,0.000
183902.700,189109.500,184447.900,263477.700,54707.950,200514.200,185901.500,695572.600,0.000
183891.700,189063.400,184372.900,263571.000,54644.300,200497.100,185771.600,695303.700,0.000
183913.200,189092.300,184422.800,263954.300,54685.070,200512.900,185849.600,695279.900,0.000
183911.400,189071.200,184387.100,263740.800,54662.800,200502.400,185806.300,695215.400,0.000
183946.500,189103.000,184449.100,263371.600,54707.680,200520.000,185888.100,695212.900,0.000
183967.900,189120.400,184480.200,263704.200,54734.240,200529.800,185923.300,695581.300,0.000
183967.700,189094.800,184409.700,263788.000,54674.070,200521.100,185795.600,695329.000,0.000
183989.800,189125.500,184461.600,264167.900,54716.090,200536.400,185877.900,695333.300,0.000
183991.500,189127.700,184431.500,263947.800,54701.070,200534.700,185837.200,695292.400,0.000
184026.800,189180.800,184501.000,263586.400,54754.000,200567.400,185923.500,695327.800,0.000
184043.700,189189.700,184533.300,263916.300,54779.030,200580.400,185961.400,695715.400,0.000
184018.500,189137.700,184447.400,263971.000,54705.810,200550.000,185820.000,695464.100,0.000
184025.100,189154.900,184488.100,264319.900,54736.120,200550.000,185885.800,695464.200,0.000
184026.700,189145.800,184455.800,264081.300,54717.610,200553.100,185846.700,695436.800,0.000
184050.500,189173.900,184510.500,263693.800,54755.790,200561.900,185920.600,695468.200,0.000
184063.900,189182.000,184536.000,263990.900,54770.180,200559.600,185939.300,695848.200,0.000
184074.000,189167.200,184481.100,264041.100,54726.370,200568.700,185824.800,695624.400,0.000
184097.100,189201.600,184538.200,264405.000,54774.830,200593.000,185914.600,695674.600,0.000
184082.000,189190.600,184493.200,264145.900,54747.650,200580.700,185862.300,695646.100,0.000
184078.600,189180.900,184525.200,263732.600,54767.500,200580.400,185920.300,695679.600,0.000
184072.600,189176.300,184535.700,264018.800,54772.770,200559.400,185935.000,696070.100,0.000
184061.200,189152.800,184465.300,264042.000,54716.000,200553.300,185811.100,695842.000,0.000
184067.600,189166.600,184508.400,264376.600,54748.540,200561.400,185886.400,695897.200,0.000
184050.600,189154.400,184464.000,264100.600,54717.160,200545.400,185829.000,695879.700,0.000
184056.000,189165.700,184503.400,263680.500,54742.730,200544.600,185891.300,695932.900,0.000
184056.300,189166.000,184517.600,263962.000,54752.480,200542.600,185913.100,696337.900,0.000
184037.300,189133.100,184439.300,263969.900,54689.000,200530.800,185785.700,696097.600,0.000
184039.800,189143.000,184478.000,264303.200,54717.790,200531.900,185856.800,696144.100,0.000
184022.500,189131.300,184432.200,264025.300,54689.450,200524.200,185799.700,696134.900,0.000
184030.100,189151.100,184479.800,263596.200,54724.760,200534.700,185872.900,696168.200,0.000
184028.100,189155.500,184501.000,263879.400,54743.540,200540.700,185902.600,696559.900,0.000
184002.100,189112.700,184419.900,263881.800,54678.000,200524.300,185774.400,696331.200,0.000
184003.100,189121.200,184458.500,264198.900,54704.200,200521.700,185841.500,696373.000,0.000
183998.600,189125.600,184425.200,263916.600,54685.780,200527.300,185798.900,696362.000,0.000
184006.500,189140.700,184469.000,263491.400,54719.490,200533.300,185871.100,696406.400,0.000
183991.300,189127.000,184473.300,263761.500,54721.630,200522.300,185884.100,696782.900,0.000
183972.600,189103.000,184397.100,263756.100,54661.730,200510.700,185757.400,696538.800,0.000
183965.500,189099.900,184429.600,264060.000,54690.070,200514.000,185831.700,696547.600,0.000
183942.300,189090.100,184384.700,263757.600,54660.930,200503.600,185780.400,696486.900,0.000
183949.600,189111.400,184433.500,263319.400,54695.260,200510.500,185849.900,696476.600,0.000
183969.600,189118.900,184469.200,263603.600,54724.320,200521.200,185883.600,696801.600,0.000
183955.700,189104.300,184396.500,263584.800,54663.520,200514.600,185755.600,696462.100,0.000
183960.000,189112.600,184438.900,263887.000,54693.290,200514.200,185828.000,696377.200,0.000
183944.600,189090.600,184394.300,263587.500,54665.220,200507.200,185777.200,696217.600,0.000
183962.300,189118.400,184447.800,263149.300,54705.810,200518.800,185854.700,696094.700,0.000
183962.200,189133.900,184467.900,263426.100,54723.870,200526.000,185882.500,696314.000,0.000
183939.000,189088.500,184383.400,263415.200,54655.560,200507.200,185752.100,695896.200,0.000
183947.800,189103.500,184429.700,263734.600,54693.290,200519.400,185835.800,695761.300,0.000
183952.000,189119.800,184404.100,263444.000,54681.400,200525.700,185796.000,695546.600,0.000
183982.100,189152.500,184467.000,263011.100,54728.790,200545.600,185879.700,695382.400,0.000
183979.500,189145.000,184481.700,263280.400,54737.910,200540.700,185900.600,695573.200,0.000
183977.800,189127.800,184421.800,263285.300,54690.070,200541.900,185782.300,695151.700,0.000
183987.600,189154.900,184470.800,263599.800,54729.950,200549.300,185850.700,694979.600,0.000
183975.600,189140.400,184428.300,263291.700,54699.640,200536.100,185794.100,694725.700,0.000
183987.200,189154.200,184471.400,262825.200,54722.260,200538.300,185855.600,694500.600,0.000
184001.200,189156.000,184501.000,263105.100,54744.880,200545.900,185892.800,694644.500,0.000
183998.800,189144.800,184440.600,263120.500,54699.460,200553.300,185785.700,694168.900,0.000
184030.700,189170.800,184502.000,263457.300,54750.510,200567.800,185877.800,693967.400,0.000
184021.800,189175.400,184466.200,263165.000,54734.240,200574.700,185839.200,693673.800,0.000
184025.300,189175.700,184502.900,262703.400,54757.660,200571.700,185902.200,693405.900,0.000
184033.100,189178.100,184524.500,262962.800,54774.650,200567.600,185924.200,693490.800,0.000
184034.300,189177.000,184468.100,262987.200,54733.700,200576.200,185814.000,692983.300,0.000
184050.400,189193.700,184519.300,263327.500,54776.710,200589.300,185896.200,692776.600,0.000
184043.500,189183.600,184476.800,263028.800,54749.800,200585.600,185845.200,692489.700,0.000
184076.900,189216.300,184537.400,262588.100,54795.210,200608.500,185928.300,692269.300,0.000
184077.100,189202.600,184549.200,262855.000,54805.500,200602.200,185949.500,692405.900,0.000
184059.100,189177.900,184476.400,262884.500,54746.220,200579.100,185827.600,691966.300,0.000
184083.400,189217.100,184537.000,263233.500,54796.460,200600.000,185919.000,691842.300,0.000
184084.700,189223.000,184507.500,262951.200,54781.450,200605.700,185872.500,691648.300,0.000
184113.500,189247.100,184569.100,262523.100,54827.220,200627.700,185952.800,691518.200,0.000
184114.900,189238.400,184582.000,262798.500,54833.750,200621.700,185972.800,691747.800,0.000
184117.200,189225.800,184520.600,262861.300,54783.500,200620.600,185859.100,691403.600,0.000
184128.000,189235.300,184564.400,263213.700,54816.940,200631.400,185937.200,691327.300,0.000
184112.400,189226.700,184518.600,262921.300,54782.610,200619.200,185879.800,691158.400,0.000
184126.600,189251.200,184570.900,262505.300,54820.070,200633.600,185958.700,691089.100,0.000
184120.900,189241.900,184582.100,262799.300,54826.240,200617.600,185971.800,691384.100,0.000
184092.400,189207.000,184502.300,262864.900,54761.150,200601.900,185847.300,691086.000,0.000
184090.400,189213.900,184542.900,263234.400,54796.730,200615.700,185935.000,691082.900,0.000
184069.600,189208.700,184502.800,262964.200,54776.080,200618.800,185892.700,690991.500,0.000
184070.000,189226.400,184547.500,262560.100,54807.460,200620.700,185960.600,690985.200,0.000
184075.200,189221.800,184570.500,262859.500,54822.660,200619.300,185983.300,691346.000,0.000
184068.500,189194.300,184509.200,262955.900,54770.630,200610.800,185867.300,691154.000,0.000
184082.000,189212.500,184555.300,263343.400,54806.660,200619.500,185944.900,691254.200,0.000
184074.800,189209.000,184510.700,263073.700,54779.120,200612.800,185893.300,691271.900,0.000
184104.000,189241.600,184571.700,262677.600,54828.030,200636.400,185982.500,691392.100,0.000
184085.200,189228.000,184570.200,262956.000,54826.330,200626.900,185996.300,691846.300,0.000
184060.900,189192.100,184497.000,263049.800,54765.440,200615.000,185874.900,691747.400,0.000
184054.500,189197.800,184533.800,263425.800,54789.580,200605.100,185935.500,691936.800,0.000
184040.000,189196.300,184499.300,263156.700,54768.840,200603.600,185884.900,692053.500,0.000
184024.700,189188.400,184529.200,262726.500,54789.140,200599.700,185945.400,692222.000,0.000
184031.600,189203.900,184555.000,263009.400,54806.840,200605.800,185968.200,692728.400,0.000
184023.800,189183.500,184489.900,263101.900,54755.340,200601.000,185852.400,692653.700,0.000
184041.900,189204.900,184536.400,263487.100,54796.200,200619.300,185934.200,692854.900,0.000
184038.300,189200.400,184494.800,263209.200,54773.760,200618.500,185889.500,692935.300,0.000
184054.300,189216.700,184540.400,262783.100,54803.890,200613.400,185963.600,693047.600,0.000
184049.500,189209.100,184552.400,263051.700,54807.020,200603.700,185974.200,693477.500,0.000
184041.400,189175.700,184486.200,263138.400,54746.670,200585.100,185846.100,693328.000,0.000
184059.100,189204.900,184542.100,263519.700,54793.340,200604.500,185932.400,693442.800,0.000
184050.000,189199.600,184505.900,263222.400,54772.680,200607.200,185888.100,693432.800,0.000
184058.000,189227.400,184559.200,262782.200,54812.380,200625.700,185966.800,693454.900,0.000
184050.400,189218.800,184569.600,263054.000,54819.450,200616.600,185979.800,693811.300,0.000
184022.500,189177.500,184489.300,263127.400,54754.360,200591.500,185852.400,693563.800,0.000
184014.100,189192.200,184525.300,263489.400,54787.790,200607.500,185929.800,693592.600,0.000
183999.800,189177.000,184479.100,263174.500,54757.130,200600.500,185875.100,693493.900,0.000
184025.400,189221.100,184542.300,262738.800,54803.620,200625.800,185960.200,693452.100,0.000
184029.300,189214.600,184561.400,263008.100,54816.230,200619.100,185975.300,693749.800,0.000
184020.800,189181.200,184494.800,263079.200,54759.810,200610.100,185858.800,693456.400,0.000
184025.100,189198.200,184533.900,263429.100,54789.760,200613.300,185929.500,693430.000,0.000
184016.000,189188.800,184494.100,263125.500,54764.460,200601.000,185872.300,693320.200,0.000
184034.000,189212.400,184545.700,262685.800,54800.490,200603.600,185946.000,693265.900,0.000
184036.600,189220.800,184564.400,262948.300,54819.000,200614.600,185978.500,693537.800,0.000
184017.400,189179.900,184491.800,263033.800,54761.780,200604.500,185862.700,693241.400,0.000
184017.300,189198.000,184528.900,263391.800,54792.710,200615.000,185939.600,693209.000,0.000
184002.000,189182.000,184480.800,263074.400,54758.290,200601.600,185877.000,693056.200,0.000
184010.300,189202.100,184526.400,262644.600,54787.970,200605.100,185942.100,692968.400,0.000
184014.100,189204.000,184546.700,262914.700,54808.090,200610.200,185969.600,693201.700,0.000
184010.600,189189.500,184488.400,263007.900,54764.370,200609.700,185865.400,692863.900,0.000
184019.200,189201.100,184530.400,263387.100,54797.990,200617.000,185945.400,692799.900,0.000
183999.800,189185.900,184478.800,263084.600,54765.260,200616.800,185887.800,692619.300,0.000
183991.600,189180.500,184508.300,262649.900,54778.680,200591.500,185943.100,692498.400,0.000
183988.000,189179.800,184519.800,262926.600,54785.200,200591.600,185956.200,692730.800,0.000
183966.600,189141.000,184442.000,263023.400,54717.070,200566.500,185827.200,692418.100,0.000
183961.000,189142.900,184471.300,263402.200,54733.080,200553.900,185887.800,692399.100,0.000
183936.900,189114.000,184416.500,263091.600,54688.820,200533.500,185818.700,692268.900,0.000
183950.500,189131.400,184467.300,262680.800,54723.510,200539.500,185894.500,692256.200,0.000
183947.400,189121.300,184474.000,262959.600,54727.270,200527.700,185904.300,692588.100,0.000
183920.200,189084.600,184394.500,263044.300,54659.230,200506.500,185773.200,692338.500,0.000
183943.300,189106.900,184448.200,263434.500,54703.480,200521.200,185858.900,692388.300,0.000
183939.800,189101.900,184410.800,263142.300,54679.250,200518.000,185806.900,692318.900,0.000
183953.200,189120.200,184461.100,262725.100,54714.660,200525.600,185881.700,692318.800,0.000
183955.800,189123.400,184477.500,263009.100,54729.590,200525.000,185901.300,692669.300,0.000
183943.100,189101.000,184411.600,263105.800,54677.380,200518.800,185787.200,692440.400,0.000
183940.000,189104.100,184446.900,263489.600,54705.810,200520.500,185857.100,692508.300,0.000
183908.900,189070.900,184382.800,263176.300,54658.330,200490.700,185778.200,692460.000,0.000
183917.700,189094.600,184430.800,262745.800,54693.290,200502.400,185853.500,692484.400,0.000
183926.700,189104.100,184449.800,263016.800,54710.190,200509.500,185880.000,692851.400,0.000
183913.600,189071.700,184379.900,263104.700,54652.160,200494.400,185760.200,692636.000,0.000
183930.200,189093.400,184431.800,263492.800,54697.310,200512.800,185846.600,692722.500,0.000
183912.900,189080.800,184385.000,263182.600,54669.960,200510.300,185797.800,692655.900,0.000
183905.700,189082.500,184416.700,262729.500,54683.990,200497.500,185856.600,692603.500,0.000
183895.800,189076.000,184419.600,262982.200,54684.890,200488.200,185864.400,692898.200,0.000
183886.300,189053.300,184356.500,263079.300,54632.850,200482.100,185751.700,692656.600,0.000
183893.400,189074.000,184404.100,263462.000,54672.550,200493.200,185829.500,692685.100,0.000
183887.300,189071.500,184367.400,263161.100,54654.930,200504.100,185788.500,692554.900,0.000
183896.700,189079.800,184409.900,262708.800,54680.680,200501.100,185856.900,692474.900,0.000
183887.700,189065.000,184407.700,262947.300,54671.300,200473.100,185845.400,692725.800,0.000
183889.700,189048.900,184348.500,263040.100,54623.110,200468.300,185730.600,692453.100,0.000
183904.400,189066.500,184397.900,263408.400,54662.890,200479.200,185811.800,692463.600,0.000
183901.500,189065.600,184365.500,263111.300,54644.920,200485.600,185770.100,692356.100,0.000
183911.700,189080.900,184414.100,262656.200,54677.110,200489.300,185842.500,692293.600,0.000
183895.200,189069.900,184415.100,262887.800,54673.620,200474.300,185840.600,692554.100,0.000
183876.500,189028.300,184340.400,262983.600,54611.210,200453.700,185720.100,692273.000,0.000
183887.400,189052.000,184384.800,263352.400,54651.450,200475.100,185805.000,692292.200,0.000
183891.600,189066.800,184367.300,263053.200,54652.880,200501.800,185783.900,692221.100,0.000
183910.300,189083.600,184424.800,262601.700,54689.890,200494.100,185852.900,692197.900,0.000
183925.700,189099.200,184447.600,262854.200,54701.340,200500.000,185863.800,692520.900,0.000
183912.500,189074.700,184379.000,262956.100,54641.790,200492.300,185748.400,692299.100,0.000
183926.100,189092.800,184424.500,263331.500,54680.240,200501.300,185829.200,692388.500,0.000
183933.200,189099.800,184400.800,263035.600,54676.570,200519.400,185799.000,692374.400,0.000
183964.800,189139.800,184470.200,262591.300,54730.480,200548.400,185889.600,692445.200,0.000
183977.300,189154.900,184497.200,262831.400,54752.030,200559.800,185915.000,692869.800,0.000
183965.500,189128.400,184432.700,262944.100,54698.210,200552.000,185802.800,692799.900,0.000
183966.200,189138.800,184473.200,263315.200,54734.860,200561.600,185885.400,693061.600,0.000
183958.000,189140.100,184437.800,263001.300,54718.320,200570.100,185846.300,693239.200,0.000
183983.100,189177.100,184502.800,262533.600,54769.460,200594.800,185934.300,693476.600,0.000
184003.000,189202.300,184539.900,262779.600,54802.280,200612.900,185969.400,694049.300,0.000
184007.100,189192.800,184492.700,262909.100,54766.070,200620.600,185871.600,694054.900,0.000
184022.500,189213.300,184541.200,263281.300,54807.290,200636.800,185954.300,694336.100,0.000
184007.900,189202.000,184493.300,262947.400,54772.590,200624.600,185888.700,694462.100,0.000
184023.800,189215.700,184541.000,262467.500,54804.960,200624.200,185955.200,694580.800,0.000
184027.400,189220.000,184555.200,262678.200,54815.150,200625.500,185971.000,694973.400,0.000
184027.700,189205.700,184504.800,262817.100,54774.560,200627.800,185873.500,694826.300,0.000
184048.100,189228.300,184560.600,263191.300,54821.590,200645.000,185960.100,694925.300,0.000
184035.600,189222.700,184518.200,262852.300,54794.590,200642.300,185903.300,694870.200,0.000
184040.400,189241.400,184563.600,262358.000,54827.850,200651.400,185973.000,694838.700,0.000
184055.200,189253.200,184592.600,262570.700,54853.510,200663.800,186007.500,695139.200,0.000
184041.600,189224.000,184527.400,262698.500,54795.930,200652.000,185893.600,694909.400,0.000
184017.800,189210.500,184535.800,263022.000,54795.840,200622.900,185932.600,694916.900,0.000
184003.400,189184.500,184485.100,262669.300,54764.910,200611.500,185874.100,694833.100,0.000
184002.800,189187.300,184519.100,262167.600,54786.000,200605.200,185938.900,694830.500,0.000
184011.500,189203.600,184544.900,262374.000,54808.360,200616.900,185969.100,695183.600,0.000
183991.500,189175.900,184476.100,262507.000,54749.530,200600.400,185853.100,695034.600,0.000
183986.900,189175.200,184502.000,262872.500,54769.020,200590.700,185911.400,695187.500,0.000
183991.900,189177.900,184471.300,262531.400,54752.480,200599.200,185865.000,695225.800,0.000
184012.400,189209.400,184530.200,262050.900,54800.130,200621.500,185949.000,695330.300,0.000
184008.000,189205.600,184539.900,262249.100,54811.220,200623.700,185966.300,695773.400,0.000
183986.300,189171.700,184465.600,262370.200,54745.680,200600.900,185843.500,695715.900,0.000
183991.400,189182.800,184502.600,262733.100,54774.290,200614.300,185911.000,695956.000,0.000
183981.200,189168.300,184459.000,262385.200,54745.410,200596.300,185853.400,696064.900,0.000
183992.600,189181.200,184506.300,261896.100,54773.580,200594.100,185916.700,696227.400,0.000
183986.700,189176.300,184510.900,262084.000,54771.880,200583.800,185921.200,696709.400,0.000
183970.600,189144.000,184445.800,262212.400,54718.500,200574.500,185814.600,696697.600,0.000
183959.300,189141.500,184468.200,262560.100,54734.330,200568.600,185871.100,696947.200,0.000
183943.200,189122.700,184414.300,262209.300,54690.960,200541.700,185794.200,697076.800,0.000
183948.100,189132.300,184456.000,261723.800,54715.550,200537.600,185858.000,697247.500,0.000
183956.400,189138.600,184474.900,261939.500,54732.630,200544.900,185878.700,697738.600,0.000
183929.900,189100.200,184400.500,262072.800,54673.530,200529.600,185764.300,697691.900,0.000
183933.500,189119.500,184442.900,262451.600,54710.100,200540.700,185844.800,697910.600,0.000
183929.200,189120.300,184406.200,262102.300,54684.710,200537.100,185787.300,697949.200,0.000
183931.400,189135.600,184450.500,261631.600,54713.590,200536.600,185857.400,698018.400,0.000
183906.300,189100.500,184436.800,261825.800,54700.090,200515.800,185855.700,698354.100,0.000
183893.300,189069.600,184372.500,261964.500,54650.290,200510.500,185754.000,698142.600,0.000
183910.800,189093.200,184420.800,262356.300,54693.020,200522.300,185830.800,698183.300,0.000
183911.100,189092.400,184381.600,262019.000,54667.540,200517.400,185772.600,698037.900,0.000
183907.500,189098.100,184415.600,261537.000,54687.930,200515.400,185837.600,697884.000,0.000
183893.700,189084.500,184416.000,261739.200,54684.170,200500.000,185841.200,698005.800,0.000
183886.900,189069.000,184362.600,261883.600,54640.000,200498.800,185743.400,697594.500,0.000
183899.800,189092.100,184409.300,262267.600,54681.670,200515.000,185826.900,697412.800,0.000
183913.600,189106.300,184388.100,261944.300,54676.040,200528.600,185789.100,697067.100,0.000
183923.700,189123.100,184437.500,261492.200,54714.660,200537.900,185870.500,696736.100,0.000
183917.600,189113.900,184438.500,261705.300,54716.630,200527.900,185878.600,696667.900,0.000
183907.700,189083.000,184376.700,261845.500,54666.380,200518.900,185773.800,696071.400,0.000
183925.100,189111.800,184431.100,262240.600,54710.460,200537.500,185858.700,695739.600,0.000
183912.500,189098.800,184387.200,261901.000,54680.500,200531.200,185797.400,695245.800,0.000
183933.300,189124.100,184445.800,261458.600,54722.970,200546.500,185877.900,694830.900,0.000
183932.300,189121.300,184457.200,261700.600,54731.020,200547.700,185895.800,694746.300,0.000
183901.000,189084.000,184377.700,261828.300,54660.120,200516.300,185768.200,694128.600,0.000
183901.200,189088.500,184413.600,262212.600,54688.290,200520.700,185839.000,693817.500,0.000
183903.300,189095.100,184383.300,261885.700,54671.830,200529.500,185794.500,693396.400,0.000
183910.000,189113.300,184429.500,261446.400,54701.520,200529.400,185858.200,693060.200,0.000
183903.200,189095.000,184431.100,261680.500,54703.040,200515.500,185864.600,693057.600,0.000
183896.000,189078.300,184371.000,261830.800,54655.110,200509.400,185763.300,692612.000,0.000
183910.900,189097.100,184420.000,262234.400,54695.620,200525.700,185845.000,692487.900,0.000
183910.800,189096.800,184385.000,261910.100,54675.770,200528.400,185794.800,692238.900,0.000
183926.800,189121.600,184438.100,261474.200,54712.870,200538.400,185872.100,692097.100,0.000
183935.100,189127.200,184455.900,261722.500,54724.760,200540.600,185888.000,692301.300,0.000
183939.700,189110.500,184408.000,261884.800,54686.050,200544.200,185792.500,692036.800,0.000
183950.000,189127.500,184451.700,262289.600,54720.110,200549.600,185863.700,692075.100,0.000
183929.500,189105.800,184397.000,261948.500,54680.590,200532.800,185792.900,691964.200,0.000
183952.000,189134.400,184458.300,261515.700,54727.090,200544.900,185876.100,691956.300,0.000
183959.600,189143.900,184480.000,261768.600,54747.650,200558.500,185906.100,692290.100,0.000
183952.100,189130.700,184422.800,261913.700,54699.820,200553.500,185806.100,692137.200,0.000
183963.200,189148.600,184468.000,262312.500,54735.760,200556.900,185880.200,692294.600,0.000
183957.500,189138.200,184429.000,261989.200,54714.570,200561.300,185827.900,692315.900,0.000
183979.700,189168.300,184487.900,261554.700,54756.320,200573.700,185906.500,692403.100,0.000
183986.800,189170.700,184505.100,261802.200,54770.890,200574.900,185924.200,692791.800,0.000
183980.700,189148.600,184450.500,261950.500,54727.360,200575.700,185826.600,692674.900,0.000
183993.000,189169.200,184501.000,262353.700,54770.180,200589.700,185913.300,692826.300,0.000
183996.800,189175.600,184471.700,262034.700,54754.710,200597.500,185868.600,692805.100,0.000
183988.700,189181.300,184504.600,261579.700,54771.880,200591.400,185927.100,692793.600,0.000
183980.000,189169.200,184504.000,261814.600,54768.570,200576.100,185928.300,693088.200,0.000
183984.900,189165.100,184461.200,261964.300,54739.520,200588.900,185844.000,692892.600,0.000
184003.100,189185.700,184514.700,262372.300,54786.180,200606.400,185929.200,692984.500,0.000
183996.700,189174.200,184470.900,262036.000,54754.270,200595.400,185864.400,692896.300,0.000
184014.200,189198.300,184526.700,261593.600,54793.960,200611.500,185946.000,692873.700,0.000
184011.500,189199.600,184536.100,261843.800,54804.340,200612.000,185965.600,693178.400,0.000
183996.300,189170.300,184472.000,261978.200,54757.840,200604.900,185868.500,692991.100,0.000
184022.000,189208.100,184533.600,262375.400,54812.920,200635.700,185961.100,693115.800,0.000
184020.000,189215.300,184504.300,262048.400,54799.680,200648.600,185915.100,693088.800,0.000
184036.900,189236.800,184560.400,261617.800,54837.860,200660.100,185990.500,693137.100,0.000
184035.600,189224.100,184559.700,261851.700,54834.460,200643.400,185992.000,693476.300,0.000
184013.800,189183.100,184483.100,261985.600,54769.730,200614.600,185873.900,693350.900,0.000
184012.700,189191.000,184518.000,262378.600,54795.930,200614.500,185940.400,693548.100,0.000
183984.100,189169.100,184463.500,262039.400,54757.300,200599.900,185871.900,693597.800,0.000
183985.000,189176.800,184506.100,261590.900,54784.930,200600.500,185941.100,693739.300,0.000
183961.000,189151.700,184493.600,261815.500,54768.040,200564.700,185920.900,694216.900,0.000
183958.400,189138.300,184440.300,261958.200,54725.480,200563.600,185823.400,694284.600,0.000
183966.500,189157.100,184483.400,262353.100,54760.700,200573.900,185900.300,694676.000,0.000
183963.400,189147.400,184442.700,262033.400,54736.210,200574.200,185848.200,694928.400,0.000
183971.400,189160.200,184487.800,261592.000,54763.210,200576.600,185916.100,695217.900,0.000
183978.000,189161.100,184502.900,261845.300,54774.830,200575.500,185932.100,695839.300,0.000
183976.200,189148.400,184451.500,261994.200,54736.830,200576.700,185843.300,696014.300,0.000
183997.700,189183.900,184510.800,262395.000,54790.030,200604.400,185936.200,696472.700,0.000
183992.400,189183.800,184474.700,262060.700,54769.730,200610.600,185882.100,696749.500,0.000
183984.200,189178.800,184504.600,261604.200,54782.160,200594.900,185931.900,697061.900,0.000
183972.600,189168.000,184503.700,261850.900,54777.330,200582.000,185934.200,697689.000,0.000
183961.900,189145.600,184443.800,261992.900,54729.950,200577.500,185840.500,697842.300,0.000
183971.000,189156.600,184486.900,262372.800,54762.580,200576.900,185909.500,698262.700,0.000
183963.600,189149.300,184445.700,262019.900,54730.840,200567.200,185839.100,698445.800,0.000
183987.600,189181.000,184512.900,261600.000,54778.230,200589.300,185927.500,698657.400,0.000
183989.700,189187.000,184526.400,261861.800,54791.640,200591.800,185943.600,699135.000,0.000
183977.900,189166.000,184465.300,261984.300,54744.250,200586.600,185844.000,699072.400,0.000
183974.500,189168.900,184496.300,262351.200,54770.540,200587.500,185913.200,699192.600,0.000
183951.700,189149.800,184442.700,261993.200,54733.880,200579.600,185847.600,699053.700,0.000
183938.000,189144.600,184473.700,261538.800,54746.040,200560.800,185897.800,698889.400,0.000
183949.000,189148.900,184491.800,261795.400,54763.120,200565.600,185921.200,698970.000,0.000
183938.700,189120.400,184427.500,261925.700,54713.950,200554.800,185826.300,698543.800,0.000
183950.000,189141.000,184474.200,262315.300,54753.550,200566.500,185904.800,698387.100,0.000
183939.500,189136.700,184434.400,261974.700,54728.960,200568.800,185848.600,697959.300,0.000
183947.100,189153.200,184481.300,261545.400,54760.790,200574.500,185919.800,697525.400,0.000
183937.100,189142.300,184478.100,261785.800,54756.410,200561.800,185919.600,697409.100,0.000
183920.300,189111.300,184411.000,261913.600,54701.070,200546.900,185814.400,696847.700,0.000
183921.900,189120.100,184445.600,262298.500,54727.710,200548.300,185879.600,696571.700,0.000
183916.300,189115.000,184406.500,261960.200,54701.700,200551.000,185822.000,696107.900,0.000
183931.300,189136.100,184462.500,261538.700,54737.820,200561.700,185900.300,695713.200,0.000
183930.200,189137.700,184469.800,261798.300,54743.800,200555.600,185910.900,695647.000,0.000
183911.900,189106.000,184402.200,261934.500,54689.180,200538.400,185805.400,695174.300,0.000
183907.400,189106.400,184432.700,262308.600,54711.980,200534.000,185870.000,695021.600,0.000
183906.900,189109.200,184400.000,261962.100,54693.020,200542.600,185818.500,694750.400,0.000
183932.200,189142.800,184461.900,261549.900,54734.150,200556.300,185890.000,694595.800,0.000
183925.100,189130.500,184461.900,261803.800,54732.720,200545.800,185895.700,694779.100,0.000
183906.300,189091.300,184393.200,261938.900,54678.090,200529.600,185797.200,694556.900,0.000
183907.900,189099.600,184426.900,262314.800,54702.320,200524.000,185854.600,694648.500,0.000
183905.900,189096.500,184390.600,261960.700,54683.810,200531.900,185803.200,694566.800,0.000
183932.200,189132.100,184460.500,261546.300,54735.940,200550.500,185892.400,694543.800,0.000
183930.200,189132.000,184466.600,261789.100,54740.320,200545.500,185899.300,694817.900,0.000
183929.800,189121.200,184416.500,261911.900,54702.950,200552.900,185816.900,694655.300,0.000
183938.400,189133.100,184453.100,262265.500,54733.790,200560.600,185887.100,694743.300,0.000
183926.000,189118.700,184400.500,261883.300,54696.870,200551.900,185818.400,694616.400,0.000
183950.200,189143.400,184462.800,261460.800,54738.440,200562.900,185896.800,694567.400,0.000
183950.000,189143.500,184474.500,261695.200,54748.720,200564.400,185912.500,694796.300,0.000
183944.900,189129.400,184425.000,261797.100,54714.660,200572.400,185832.000,694562.100,0.000
183953.300,189150.400,184471.300,262156.100,54753.110,200581.300,185905.100,694615.000,0.000
183937.800,189132.100,184423.400,261775.700,54717.250,200563.400,185830.200,694459.400,0.000
183948.600,189146.700,184477.700,261340.500,54751.590,200565.200,185900.200,694369.300,0.000
183953.600,189152.600,184488.500,261583.300,54763.480,200572.100,185917.400,694599.900,0.000
183942.800,189129.600,184424.800,261680.100,54716.450,200568.100,185825.800,694378.300,0.000
183964.500,189159.500,184477.700,262052.900,54763.030,200590.100,185914.700,694461.300,0.000
183969.300,189168.100,184449.900,261697.000,54751.230,200600.800,185864.700,694356.900,0.000
183982.000,189187.500,184507.500,261268.300,54790.920,200609.600,185942.200,694293.700,0.000
183989.500,189193.800,184526.600,261522.100,54807.290,200619.700,185963.800,694562.300,0.000
183991.300,189182.500,184479.400,261630.800,54770.630,200621.000,185877.100,694384.900,0.000
183997.900,189187.800,184517.100,261978.900,54796.290,200614.200,185936.800,694462.300,0.000
183992.700,189185.700,184477.800,261605.500,54771.700,200619.600,185879.400,694343.800,0.000
184004.100,189203.700,184530.100,261189.500,54807.460,200629.500,185959.000,694297.900,0.000
184004.100,189201.400,184531.000,261443.400,54810.140,200624.100,185966.900,694568.400,0.000
183994.100,189180.000,184465.600,261520.300,54764.280,200623.400,185879.700,694355.600,0.000
183993.000,189185.400,184499.600,261852.100,54789.140,200617.300,185941.500,694396.900,0.000
183980.700,189182.500,184461.500,261478.300,54761.510,200612.600,185876.600,694257.100,0.000
184006.200,189215.000,184535.600,261087.300,54813.450,200631.100,185963.300,694216.700,0.000
184008.600,189213.400,184545.300,261338.000,54824.000,200631.900,185974.600,694449.800,0.000
184007.500,189201.600,184496.500,261424.400,54788.960,200640.100,185892.100,694216.300,0.000
184017.600,189216.300,184541.500,261774.600,54823.730,200645.600,185964.100,694260.300,0.000
183987.600,189189.600,184479.300,261391.900,54778.680,200629.500,185889.200,694104.700,0.000
183983.100,189190.500,184513.800,260962.100,54795.210,200615.200,185946.800,694009.400,0.000
183982.900,189189.900,184517.800,261210.100,54796.730,200610.900,185951.500,694232.200,0.000
183980.600,189183.500,184470.100,261282.900,54759.630,200616.800,185869.000,693990.600,0.000
183998.400,189207.300,184529.000,261649.600,54806.570,200627.600,185949.900,694066.500,0.000
183986.100,189192.000,184483.400,261274.700,54775.280,200619.800,185881.900,693940.200,0.000
183995.000,189204.900,184533.700,260851.700,54807.290,200621.800,185953.200,693877.300,0.000
183997.600,189202.900,184539.000,261102.500,54813.720,200619.800,185959.900,694128.400,0.000
183989.100,189184.400,184478.300,261181.000,54767.230,200616.600,185867.800,693913.200,0.000
183985.500,189187.500,184509.200,261522.200,54790.750,200616.200,185936.200,693968.100,0.000
183972.000,189173.200,184458.500,261139.100,54757.930,200610.800,185869.900,693820.400,0.000
183983.300,189190.600,184511.500,260718.800,54792.360,200614.100,185939.800,693734.800,0.000
183977.000,189186.300,184514.100,260958.200,54796.820,200610.800,185945.800,693940.000,0.000
183969.500,189164.000,184458.000,261041.200,54754.000,200604.500,185855.200,693699.600,0.000
183996.400,189195.900,184519.100,261394.000,54800.580,200624.900,185936.500,693745.300,0.000
183994.600,189194.900,184485.100,261012.900,54775.550,200623.300,185874.000,693588.100,0.000
184000.300,189208.000,184538.400,260592.100,54810.140,200627.400,185949.500,693508.800,0.000
183982.500,189188.800,184528.300,260823.300,54802.370,200611.100,185948.200,693720.200,0.000
183962.400,189156.200,184454.600,260883.100,54745.150,200594.900,185844.700,693473.800,0.000
183954.300,189159.600,184480.400,261215.800,54766.250,200588.100,185902.200,693529.600,0.000
183937.100,189140.800,184424.300,260825.500,54729.860,200579.800,185835.000,693394.100,0.000
183968.500,189169.200,184492.000,260421.200,54780.460,200599.700,185925.000,693361.700,0.000
183965.400,189162.900,184495.200,260655.600,54780.380,200589.800,185921.500,693593.400,0.000
183946.700,189129.500,184426.200,260712.800,54716.710,200560.900,185801.500,693350.300,0.000
183955.200,189141.700,184471.600,261061.300,54746.490,200560.400,185868.500,693416.800,0.000
183937.100,189128.100,184422.000,260676.600,54712.160,200556.100,185805.900,693274.100,0.000
183949.300,189150.200,184478.000,260256.000,54753.730,200571.200,185890.300,693200.800,0.000
183942.100,189146.000,184477.400,260500.700,54756.230,200568.300,185899.200,693417.200,0.000
183931.500,189125.600,184416.900,260589.100,54712.250,200564.700,185813.900,693182.400,0.000
183929.500,189130.000,184449.700,260938.200,54738.350,200563.200,185880.800,693230.600,0.000
183919.900,189117.500,184401.500,260560.400,54704.020,200550.200,185806.000,693070.900,0.000
183936.300,189131.300,184456.400,260139.200,54736.300,200553.600,185877.200,692983.100,0.000
183941.100,189137.400,184467.900,260394.700,54741.930,200556.900,185885.900,693214.400,0.000
183924.600,189115.000,184406.300,260485.300,54693.470,200550.700,185789.900,692999.400,0.000
183919.900,189122.700,184444.000,260832.000,54722.970,200556.500,185864.000,693064.700,0.000
183909.800,189116.500,184399.800,260458.100,54695.790,200559.300,185806.600,692935.900,0.000
183920.400,189129.100,184448.000,260042.600,54722.970,200552.600,185865.600,692877.400,0.000
183898.900,189107.300,184433.000,260277.500,54708.760,200525.600,185849.600,693094.000,0.000
183868.700,189059.900,184354.600,260347.800,54647.610,200498.800,185742.400,692849.100,0.000
183894.200,189085.900,184413.400,260716.000,54697.310,200511.800,185823.800,692924.100,0.000
183893.600,189086.600,184379.100,260353.900,54673.620,200514.200,185762.200,692784.800,0.000
183896.000,189091.900,184425.500,259935.100,54699.460,200507.800,185828.500,692684.900,0.000
183893.200,189086.600,184431.300,260199.000,54701.520,200503.700,185835.600,692893.500,0.000
183873.300,189058.200,184363.700,260285.900,54644.920,200484.200,185730.400,692637.100,0.000
183868.400,189063.400,184394.500,260635.000,54668.080,200481.600,185792.100,692683.100,0.000
183861.300,189059.600,184353.200,260275.200,54642.330,200486.100,185736.800,692564.800,0.000
183874.300,189078.700,184406.800,259886.000,54679.610,200492.400,185817.800,692528.500,0.000
183865.500,189068.900,184403.300,260164.900,54681.220,200486.400,185821.300,692802.600,0.000
183856.300,189049.200,184343.500,260266.200,54633.750,200477.700,185723.200,692614.800,0.000
183864.200,189063.800,184385.000,260624.400,54666.380,200482.900,185792.600,692697.700,0.000
183866.600,189065.700,184354.000,260275.200,54648.500,200490.500,185741.000,692588.800,0.000
183873.300,189079.100,184406.400,259882.700,54679.790,200489.800,185815.100,692530.700,0.000
183851.900,189054.700,184392.200,260148.900,54664.590,200467.200,185804.300,692783.900,0.000
183842.500,189034.000,184337.700,260258.500,54620.960,200464.700,185714.300,692603.400,0.000
183851.500,189051.600,184385.200,260638.200,54662.000,200477.600,185793.800,692711.100,0.000
183840.500,189048.300,184342.700,260294.100,54635.710,200476.600,185731.900,692611.500,0.000
183847.300,189064.600,184390.400,259914.600,54667.180,200478.100,185802.100,692573.800,0.000
183836.700,189047.300,184382.100,260191.500,54661.730,200461.900,185795.700,692841.400,0.000
183821.500,189025.900,184322.000,260296.500,54615.600,200457.000,185703.500,692676.100,0.000
183832.900,189037.000,184367.800,260666.400,54652.250,200466.900,185782.600,692788.300,0.000
183821.800,189022.600,184315.800,260305.200,54612.470,200453.200,185707.500,692682.300,0.000
183838.000,189039.700,184370.000,259934.100,54646.350,200455.900,185782.200,692647.100,0.000
183830.000,189030.900,184368.000,260206.000,54648.770,200455.900,185790.200,692880.000,0.000
183809.800,188999.500,184300.700,260294.600,54593.250,200439.200,185689.300,692647.900,0.000
183804.000,188996.900,184329.600,260636.800,54606.750,200422.100,185738.500,692681.700,0.000
183797.300,188988.200,184289.800,260274.900,54578.760,200419.800,185679.900,692529.100,0.000
183826.400,189032.900,184365.500,259913.800,54637.770,200451.500,185783.600,692461.000,0.000
183822.500,189027.800,184368.600,260187.200,54645.100,200452.700,185790.500,692632.900,0.000
183811.500,189004.700,184307.000,260271.700,54601.380,200448.100,185697.900,692336.300,0.000
183816.800,189015.100,184344.700,260613.800,54629.720,200447.400,185761.400,692322.900,0.000
183809.000,189001.100,184298.800,260245.300,54595.570,200438.200,185690.200,692124.800,0.000
183841.100,189035.000,184370.300,259892.800,54645.100,200456.800,185782.900,692029.900,0.000
183869.000,189061.400,184397.300,260192.300,54673.180,200478.900,185812.600,692230.300,0.000
183868.000,189052.000,184345.000,260280.100,54635.800,200480.300,185730.400,691952.800,0.000
183849.600,189044.900,184364.200,260621.600,54650.460,200466.900,185787.100,691968.100,0.000
183830.000,189025.000,184312.000,260266.100,54613.990,200458.800,185720.600,691827.400,0.000
183838.500,189038.600,184365.200,259907.300,54647.340,200462.600,185800.300,691795.800,0.000
183837.300,189036.000,184369.900,260201.800,54652.790,200460.400,185804.500,692090.800,0.000
183825.300,189013.600,184307.300,260294.700,54603.880,200446.900,185704.800,691935.600,0.000
183833.100,189025.700,184349.900,260657.900,54635.540,200450.100,185773.100,692092.600,0.000
183826.800,189022.100,184314.500,260315.700,54609.610,200449.800,185712.800,692091.100,0.000
183841.600,189039.100,184375.400,259973.300,54647.520,200454.800,185793.800,692171.900,0.000
183855.300,189051.400,184391.000,260275.200,54661.730,200464.600,185805.500,692525.600,0.000
183846.100,189030.600,184330.500,260371.300,54611.750,200453.500,185705.500,692398.200,0.000
183840.600,189031.500,184359.500,260731.000,54633.750,200448.200,185769.500,692555.900,0.000
183835.100,189029.500,184320.800,260394.200,54615.330,200459.800,185725.200,692505.600,0.000
183858.400,189057.100,184386.900,260071.100,54659.500,200472.100,185806.800,692538.800,0.000
183857.400,189047.100,184383.700,260372.300,54652.610,200451.400,185789.100,692826.900,0.000
183849.900,189029.500,184326.400,260472.000,54610.410,200447.100,185702.000,692623.600,0.000
183858.400,189045.500,184371.600,260845.400,54647.430,200459.500,185779.100,692688.600,0.000
183852.600,189040.300,184335.400,260510.800,54625.250,200464.000,185725.500,692539.400,0.000
183872.400,189063.900,184401.200,260193.900,54669.780,200476.700,185815.300,692467.600,0.000
183880.900,189073.800,184412.100,260497.200,54681.580,200489.000,185829.500,692641.100,0.000
183873.700,189060.000,184357.700,260588.600,54639.470,200486.200,185740.800,692333.300,0.000
183885.900,189078.300,184403.200,260964.500,54676.390,200490.500,185810.200,692301.900,0.000
183868.700,189058.900,184350.800,260618.600,54642.240,200480.900,185741.800,692050.200,0.000
183875.200,189079.600,184408.500,260289.900,54684.530,200491.600,185831.700,691886.900,0.000
183866.700,189073.100,184408.000,260599.800,54690.160,200490.500,185836.100,692027.000,0.000
183864.800,189057.100,184358.900,260700.500,54656.630,200495.100,185753.600,691699.300,0.000
183876.300,189077.300,184407.400,261069.400,54696.420,200508.700,185836.500,691636.600,0.000
183877.800,189080.900,184375.500,260739.400,54676.480,200517.300,185787.600,691389.400,0.000
183905.900,189111.400,184444.600,260442.500,54720.920,200528.100,185872.600,691250.000,0.000
183903.800,189104.900,184438.200,260746.200,54715.020,200518.600,185862.700,691358.900,0.000
183903.400,189093.200,184384.500,260837.900,54678.980,200523.000,185781.900,690994.900,0.000
183921.000,189117.600,184436.200,261225.800,54723.690,200536.800,185864.400,690939.400,0.000
183912.400,189105.100,184391.100,260885.800,54694.090,200533.700,185802.800,690670.800,0.000
183937.300,189131.600,184460.700,260583.700,54743.090,200547.200,185891.700,690513.800,0.000
183950.500,189140.800,184474.900,260908.700,54759.000,200558.100,185902.300,690646.700,0.000
183931.700,189111.100,184410.500,261006.800,54706.880,200542.500,185805.600,690325.000,0.000
183917.700,189109.500,184438.600,261381.200,54723.870,200529.700,185862.600,690308.100,0.000
183917.000,189115.300,184406.300,261049.100,54706.250,200540.500,185812.700,690106.900,0.000
183944.500,189150.600,184480.100,260756.500,54762.760,200565.000,185916.100,690034.300,0.000
183947.600,189146.200,184482.400,261082.400,54769.020,200565.800,185920.600,690250.500,0.000
183977.000,189162.100,184460.900,261205.500,54758.470,200594.400,185861.600,690018.400,0.000
183967.300,189160.900,184486.900,261565.100,54775.460,200583.700,185919.300,690050.500,0.000
183953.000,189142.000,184437.300,261231.500,54740.860,200575.000,185852.800,689918.300,0.000
183979.900,189169.300,184509.500,260949.700,54789.850,200591.100,185946.600,689916.700,0.000
183969.600,189160.900,184503.200,261274.100,54783.410,200583.300,185936.600,690183.000,0.000
183962.800,189143.000,184450.500,261370.800,54745.320,200584.900,185852.600,689993.800,0.000
183969.300,189162.800,184496.600,261748.400,54784.220,200590.500,185927.000,690111.100,0.000
183952.500,189149.700,184448.500,261424.700,54750.150,200580.200,185859.100,690050.100,0.000
183966.200,189174.200,184507.800,261140.700,54790.210,200590.600,185947.300,690101.800,0.000
183960.000,189169.400,184504.200,261457.200,54788.060,200585.800,185943.100,690409.600,0.000
183951.800,189150.200,184447.300,261531.000,54743.800,200579.600,185847.100,690246.100,0.000
183963.500,189168.600,184493.200,261903.800,54781.270,200585.800,185922.700,690389.000,0.000
183952.300,189153.100,184444.500,261565.900,54745.060,200572.600,185851.100,690321.900,0.000
183962.500,189164.300,184503.000,261276.500,54784.040,200578.300,185936.400,690375.700,0.000
183951.800,189153.300,184492.500,261582.800,54773.400,200564.900,185921.200,690681.900,0.000
183932.600,189125.600,184423.200,261619.700,54718.770,200556.000,185819.800,690486.800,0.000
183934.600,189129.200,184461.200,261967.500,54750.420,200560.100,185894.900,690613.100,0.000
183920.400,189116.600,184412.100,261615.600,54719.400,200554.000,185833.000,690541.000,0.000
183928.100,189138.100,184470.100,261314.200,54758.650,200561.000,185919.900,690585.100,0.000
183925.700,189138.800,184467.900,261614.800,54757.750,200558.300,185913.200,690884.500,0.000
183921.700,189119.300,184410.800,261632.100,54710.370,200552.900,185813.400,690678.900,0.000
183930.900,189130.900,184455.100,261942.200,54742.380,200553.300,185883.000,690777.600,0.000
183924.300,189124.500,184417.500,261576.800,54718.050,200554.500,185829.300,690697.800,0.000
183935.300,189143.200,184476.300,261269.900,54759.360,200561.000,185918.300,690745.800,0.000
183932.300,189138.500,184469.500,261548.300,54755.160,200553.200,185908.000,691048.100,0.000
183925.400,189116.100,184408.900,261526.000,54707.950,200550.700,185809.500,690825.800,0.000
183934.700,189122.900,184449.800,261797.700,54738.890,200552.700,185876.300,690899.700,0.000
183914.000,189097.800,184395.400,261380.200,54697.490,200532.400,185801.400,690779.200,0.000
183929.500,189125.400,184462.500,261054.300,54744.610,200546.100,185897.000,690812.300,0.000
183924.400,189120.400,184459.600,261310.300,54744.880,200545.000,185890.200,691086.600,0.000
183916.800,189103.500,184400.400,261243.500,54697.670,200542.000,185786.600,690801.000,0.000
183917.600,189112.100,184435.600,261481.100,54720.920,200538.800,185849.300,690815.000,0.000
183903.300,189094.300,184384.100,261047.300,54683.810,200524.800,185781.500,690646.900,0.000
183918.900,189112.200,184444.900,260696.000,54723.420,200527.000,185868.700,690624.100,0.000
183916.200,189101.900,184439.500,260921.200,54718.950,200524.500,185857.700,690835.300,0.000
183912.400,189085.400,184382.600,260838.100,54677.200,200527.500,185764.500,690491.600,0.000
183919.000,189105.400,184430.000,261076.300,54715.380,200537.200,185843.100,690465.400,0.000
183905.700,189095.100,184389.700,260641.600,54686.140,200530.400,185779.600,690259.800,0.000
183923.000,189121.100,184456.600,260290.400,54734.420,200543.500,185873.500,690207.000,0.000
183924.400,189117.800,184455.200,260516.800,54735.490,200542.500,185863.500,690381.400,0.000
183911.100,189092.300,184387.700,260445.000,54681.130,200529.400,185757.000,689989.700,0.000
183906.000,189092.000,184412.500,260677.600,54696.420,200519.600,185813.000,689916.600,0.000
183908.500,189093.800,184378.900,260251.500,54675.320,200527.000,185763.800,689675.200,0.000
183929.700,189121.500,184447.700,259899.800,54724.670,200540.100,185863.300,689584.700,0.000
183913.900,189105.500,184429.700,260118.300,54711.350,200531.900,185844.800,689723.600,0.000
183900.800,189083.400,184367.800,260063.700,54662.180,200526.900,185743.800,689314.000,0.000
183900.900,189092.300,184409.400,260318.100,54695.350,200520.300,185819.400,689234.500,0.000
183895.800,189091.000,184379.600,259904.200,54679.610,200531.700,185773.800,688982.800,0.000
183922.000,189124.500,184456.700,259568.900,54734.240,200552.000,185875.700,688887.300,0.000
183917.800,189116.000,184453.300,259800.100,54729.500,200546.700,185862.500,689006.700,0.000
183908.200,189091.900,184393.000,259775.700,54678.980,200535.300,185758.700,688578.700,0.000
183917.000,189106.800,184431.100,260046.800,54708.940,200535.000,185824.600,688470.900,0.000
183917.800,189107.700,184394.800,259646.900,54687.660,200536.400,185770.800,688192.800,0.000
183948.900,189145.900,184472.400,259326.400,54748.190,200565.300,185883.900,688075.900,0.000
183949.200,189144.000,184471.400,259579.600,54750.420,200569.300,185880.900,688190.500,0.000
183933.200,189118.700,184408.400,259572.200,54698.660,200555.200,185774.400,687780.000,0.000
183933.000,189127.200,184444.500,259853.600,54725.030,200547.800,185831.800,687683.900,0.000
183916.100,189110.200,184397.800,259460.200,54694.630,200539.700,185771.300,687597.100,0.000
183932.400,189138.300,184466.500,259145.900,54745.590,200556.500,185872.900,687595.400,0.000
183922.100,189118.800,184452.200,259398.500,54733.520,200543.300,185854.200,687663.300,0.000
183915.300,189097.400,184394.700,259406.700,54687.390,200539.200,185759.900,687516.300,0.000
183926.300,189119.300,184438.700,259698.100,54724.850,200554.000,185841.200,687624.400,0.000
183910.400,189107.400,184391.000,259303.300,54692.660,200547.500,185782.600,687499.800,0.000
183927.400,189128.900,184457.400,259002.000,54736.920,200551.700,185873.500,687455.200,0.000
183931.800,189134.300,184458.600,259276.600,54742.290,200557.800,185870.800,687552.300,0.000
183929.200,189114.900,184404.800,259297.100,54696.780,200550.600,185772.100,687362.100,0.000
183937.800,189128.800,184449.400,259596.200,54731.640,200557.200,185845.500,687407.800,0.000
183923.800,189114.200,184404.900,259213.500,54699.100,200549.800,185784.900,687295.300,0.000
183932.000,189127.200,184459.500,258914.000,54732.810,200547.100,185862.500,687333.700,0.000
183923.600,189117.100,184444.900,259179.400,54724.230,200540.200,185846.400,687513.100,0.000
183914.100,189092.300,184383.100,259197.900,54677.380,200533.300,185752.900,687250.800,0.000
183931.600,189120.200,184433.500,259520.800,54720.560,200550.500,185835.100,687275.900,0.000
183927.700,189122.800,184399.900,259144.000,54701.070,200557.700,185787.600,687204.500,0.000
183938.600,189145.200,184465.500,258857.400,54746.840,200567.400,185883.200,687295.700,0.000
183929.900,189129.400,184455.900,259126.700,54738.350,200553.600,185862.600,687490.400,0.000
183912.700,189101.000,184394.300,259146.000,54687.390,200540.600,185758.000,687252.000,0.000
183926.200,189125.600,184445.800,259475.900,54730.300,200555.400,185835.900,687326.600,0.000
183923.700,189126.400,184414.300,259109.400,54710.820,200560.600,185789.400,687258.100,0.000
183938.900,189146.100,184479.900,258830.100,54753.820,200563.800,185882.200,687360.500,0.000
183923.800,189122.400,184457.700,259089.500,54736.830,200548.400,185855.000,687585.600,0.000
183914.200,189096.700,184393.200,259106.200,54685.690,200537.900,185754.400,687340.100,0.000
183925.900,189107.300,184432.300,259420.800,54716.000,200539.300,185823.700,687436.300,0.000
183922.800,189106.000,184398.400,259051.700,54695.700,200543.500,185775.100,687353.300,0.000
183953.300,189138.100,184479.400,258783.200,54753.910,200567.300,185883.700,687392.400,0.000
183944.900,189124.200,184464.100,259042.700,54740.410,200555.400,185859.600,687534.600,0.000
183935.500,189107.800,184410.800,259060.000,54694.540,200549.100,185764.100,687349.400,0.000
183936.500,189120.900,184452.500,259366.000,54725.030,200548.400,185831.200,687437.500,0.000
183927.300,189118.800,184415.100,258982.200,54706.790,200552.000,185783.800,687347.400,0.000
183925.700,189129.500,184465.500,258666.800,54740.590,200550.000,185868.300,687382.000,0.000
183920.300,189122.900,184456.400,258891.600,54737.190,200551.500,185856.300,687578.300,0.000
183911.800,189103.900,184396.400,258847.900,54689.450,200544.400,185755.200,687271.200,0.000
183920.400,189107.800,184432.000,259095.100,54714.210,200541.300,185819.200,687266.400,0.000
183925.500,189102.300,184395.000,258671.800,54689.710,200537.400,185766.300,687174.600,0.000
183950.400,189129.800,184466.500,258365.500,54738.890,200551.800,185869.300,687235.100,0.000
183949.100,189121.700,184454.900,258593.500,54728.960,200543.700,185846.500,687370.400,0.000
183945.900,189106.900,184399.100,258553.100,54683.100,200535.800,185743.400,687159.100,0.000
183965.900,189136.800,184452.900,258815.600,54729.410,200556.900,185824.600,687136.100,0.000
183960.900,189137.300,184419.100,258387.600,54712.070,200574.200,185780.000,687083.100,0.000
183955.500,189139.300,184469.300,258067.500,54740.770,200551.800,185865.600,687144.600,0.000
183935.500,189117.200,184444.400,258292.500,54721.540,200533.100,185836.600,687255.900,0.000
183926.300,189093.500,184386.600,258252.800,54677.020,200529.700,185739.800,687108.400,0.000
183947.400,189119.800,184441.800,258544.500,54723.420,200544.500,185825.800,687098.200,0.000
183956.800,189131.400,184421.200,258179.000,54717.160,200562.800,185793.500,687092.100,0.000
183951.800,189136.200,184469.700,257900.500,54745.770,200555.300,185877.500,687147.900,0.000
183935.800,189119.200,184444.800,258165.500,54726.190,200540.200,185845.000,687282.900,0.000
183930.000,189099.300,184386.200,258152.000,54677.820,200532.400,185743.800,687135.500,0.000
183941.800,189113.500,184434.200,258480.900,54713.590,200536.700,185824.400,687144.000,0.000
183938.700,189113.000,184400.200,258142.000,54692.840,200537.500,185777.100,687136.900,0.000
183952.700,189131.900,184468.400,257924.500,54738.890,200543.800,185876.000,687249.500,0.000
183954.200,189130.000,184464.000,258251.900,54736.560,200542.400,185859.100,687434.400,0.000
183955.800,189118.400,184416.100,258283.600,54699.460,200546.200,185768.800,687213.100,0.000
183978.200,189146.200,184472.300,258639.600,54749.530,200568.700,185861.300,687259.600,0.000
183978.300,189145.700,184437.600,258321.700,54730.300,200575.000,185817.500,687211.100,0.000
183975.500,189149.300,184487.800,258119.700,54757.570,200563.100,185899.300,687310.600,0.000
183964.600,189136.000,184469.300,258459.100,54743.710,200552.300,185872.000,687507.600,0.000
183972.900,189133.700,184429.000,258514.800,54717.790,200570.200,185801.400,687261.600,0.000
183981.800,189147.100,184473.600,258877.600,54753.370,200576.900,185883.000,687304.800,0.000
183976.700,189142.300,184438.600,258580.000,54732.090,200576.300,185838.000,687222.300,0.000
183992.500,189164.000,184507.200,258415.700,54777.330,200574.800,185931.000,687329.400,0.000
183991.000,189152.800,184493.600,258763.200,54768.750,200563.500,185904.700,687523.900,0.000
183973.500,189121.600,184423.200,258747.200,54712.250,200550.300,185798.300,687225.700,0.000
183991.400,189142.100,184471.500,259073.200,54751.590,200563.100,185878.000,687202.100,0.000
184003.600,189155.500,184450.100,258751.500,54742.290,200582.800,185842.700,687145.100,0.000
184015.300,189168.500,184514.500,258559.200,54780.910,200580.000,185932.500,687205.500,0.000
183996.200,189139.400,184482.100,258869.700,54750.690,200549.100,185882.800,687304.600,0.000
184003.100,189133.900,184436.200,258872.500,54716.360,200556.800,185794.500,687120.900,0.000
184020.300,189159.600,184487.200,259202.400,54758.740,200574.000,185878.000,687089.200,0.000
184006.300,189143.700,184436.100,258847.200,54721.810,200560.800,185810.800,687050.100,0.000
184011.300,189154.400,184491.800,258617.700,54755.160,200554.300,185897.300,687097.100,0.000
184001.900,189141.800,184472.400,258887.600,54743.980,200547.500,185872.400,687220.100,0.000
183976.100,189103.300,184397.300,258812.900,54679.880,200523.000,185755.500,687089.700,0.000
183977.300,189111.700,184437.500,259120.800,54711.170,200522.400,185829.800,687097.800,0.000
183970.600,189109.300,184404.700,258832.100,54695.080,200534.000,185793.000,687112.100,0.000
183998.300,189141.600,184487.100,258738.700,54754.890,200547.500,185915.200,687317.400,0.000
183992.900,189132.000,184472.400,259158.500,54743.980,200528.200,185889.300,687524.900,0.000
183975.400,189105.400,184404.900,259191.500,54689.270,200520.900,185781.900,687457.800,0.000
183973.700,189108.400,184443.200,259584.000,54718.680,200523.200,185863.300,687527.600,0.000
183972.800,189108.800,184415.100,259365.900,54704.200,200528.200,185827.500,687585.200,0.000
183988.900,189140.800,184495.100,259332.200,54762.130,200544.900,185947.200,687849.800,0.000
183987.500,189145.800,184487.200,259757.500,54760.610,200549.800,185929.700,688189.100,0.000
183981.800,189125.300,184429.300,259763.100,54714.300,200548.800,185830.400,688028.400,0.000
183996.200,189141.700,184481.200,260134.000,54751.410,200556.000,185911.200,688239.100,0.000
183986.900,189126.100,184439.800,259879.200,54720.740,200542.600,185850.500,688288.500,0.000
183999.900,189143.200,184508.800,259829.900,54769.730,200543.300,185954.500,688556.600,0.000
183989.600,189131.200,184487.500,260253.000,54755.610,200536.600,185921.700,689035.800,0.000
183980.200,189113.800,184423.000,260223.700,54707.770,200536.200,185819.600,688921.600,0.000
183976.400,189116.000,184458.800,260567.100,54735.760,200534.400,185896.700,689150.300,0.000
183964.300,189104.300,184417.700,260310.500,54706.520,200527.000,185844.000,689238.200,0.000
183979.100,189131.300,184490.500,260264.600,54757.130,200536.200,185956.000,689539.600,0.000
183967.400,189119.300,184467.400,260669.500,54740.320,200527.600,185918.200,690018.300,0.000
183955.500,189094.500,184400.500,260602.000,54685.240,200517.800,185805.700,689913.000,0.000
183973.700,189118.000,184456.500,260962.400,54731.560,200529.800,185895.800,690171.900,0.000
183952.700,189094.900,184404.900,260716.200,54694.090,200514.600,185832.800,690226.300,0.000
183974.500,189125.000,184486.200,260721.800,54756.950,200536.900,185956.500,690519.400,0.000
183965.200,189118.800,184469.200,261148.500,54747.830,200536.300,185928.800,690966.800,0.000
183947.100,189086.300,184397.100,261042.700,54683.810,200517.200,185801.800,690756.600,0.000
183960.600,189107.800,184450.200,261374.200,54722.080,200522.300,185881.000,690911.800,0.000
183955.900,189102.400,184418.100,261123.000,54700.360,200521.000,185834.700,690903.800,0.000
183981.800,189131.900,184500.300,261138.700,54760.430,200537.200,185955.800,691135.100,0.000
183978.500,189127.900,184480.100,261571.100,54748.450,200537.500,185924.900,691516.600,0.000
183966.600,189101.500,184410.300,261443.800,54690.430,200525.900,185805.900,691249.300,0.000
183973.000,189115.000,184456.100,261772.400,54725.840,200531.900,185887.500,691366.100,0.000
183974.900,189116.200,184429.000,261561.900,54713.410,200539.500,185853.700,691375.500,0.000
183998.300,189141.300,184505.900,261602.700,54766.700,200544.400,185965.600,691614.900,0.000
184001.500,189136.300,184488.800,262022.400,54753.550,200536.800,185925.000,692006.800,0.000
184005.900,189127.300,184436.000,261832.900,54711.350,200542.300,185817.600,691737.000,0.000
184019.100,189146.900,184490.700,262097.400,54753.200,200553.500,185907.200,691841.600,0.000
184018.600,189146.500,184461.600,261806.400,54739.520,200560.600,185871.600,691806.900,0.000
184032.700,189166.100,184536.500,261796.900,54792.710,200559.200,185979.600,692011.800,0.000
184029.400,189160.100,184517.300,262171.500,54777.960,200552.500,185933.200,692360.900,0.000
184032.000,189159.000,184463.200,261913.000,54735.400,200564.000,185831.800,692032.800,0.000
184037.400,189170.600,184507.100,262135.300,54769.290,200566.100,185911.200,692075.300,0.000
184035.300,189159.600,184474.000,261834.400,54745.950,200560.200,185863.300,691990.800,0.000
184070.100,189194.700,184564.400,261846.900,54811.750,200582.200,185993.100,692153.000,0.000
184062.300,189182.300,184535.100,262212.100,54792.530,200581.300,185945.800,692439.400,0.000
184035.000,189147.600,184454.000,261905.400,54726.910,200559.300,185814.500,692023.400,0.000
184037.700,189161.600,184505.100,262112.500,54768.390,200559.800,185906.300,691994.100,0.000
184031.100,189162.700,184477.500,261791.500,54753.820,200573.700,185874.400,691833.600,0.000
184046.900,189191.500,184560.200,261789.200,54811.310,200580.800,185992.500,691929.900,0.000
184035.800,189183.800,184536.700,262134.000,54797.720,200582.200,185950.700,692154.100,0.000
184022.900,189162.300,184464.700,261793.800,54741.930,200571.800,185826.300,691689.900,0.000
184027.100,189175.300,184510.200,261981.000,54776.350,200575.500,185909.500,691631.900,0.000
184031.100,189175.300,184487.700,261660.500,54766.870,200586.400,185882.100,691454.100,0.000
184057.900,189201.500,184572.300,261674.800,54828.920,200599.000,186009.300,691543.400,0.000
184028.500,189168.800,184520.200,261997.600,54786.810,200569.700,185939.100,691734.900,0.000
184020.600,189151.100,184451.300,261637.800,54733.790,200568.800,185819.800,691262.300,0.000
184037.100,189182.500,184513.500,261824.600,54787.080,200595.800,185922.200,691213.000,0.000
184038.700,189188.000,184491.400,261499.500,54777.070,200607.300,185891.000,691048.800,0.000
184035.900,189196.300,184553.500,261501.600,54812.380,200591.000,185989.800,691147.400,0.000
184016.500,189178.900,184515.900,261836.600,54784.130,200578.600,185932.500,691385.400,0.000
184001.300,189154.700,184445.000,261441.600,54727.270,200574.200,185810.600,690927.100,0.000
184018.000,189181.800,184508.200,261616.400,54780.020,200595.600,185912.700,690900.600,0.000
184018.200,189179.700,184481.300,261277.100,54765.180,200599.700,185877.400,690753.700,0.000
184035.600,189204.500,184562.700,261291.400,54821.050,200604.200,185998.000,690885.600,0.000
184035.900,189197.300,184540.200,261637.700,54808.800,200604.600,185956.800,691167.300,0.000
184020.500,189166.300,184464.200,261230.500,54745.680,200591.400,185827.900,690741.400,0.000
184017.800,189168.200,184502.000,261389.600,54771.970,200582.000,185903.100,690746.200,0.000
184009.200,189165.400,184468.400,261062.000,54752.930,200586.000,185867.300,690653.900,0.000
184029.000,189193.800,184553.700,261103.400,54813.100,200596.500,185993.200,690849.700,0.000
184010.800,189176.300,184517.500,261442.200,54785.380,200580.200,185932.500,691156.500,0.000
183998.900,189157.400,184449.500,261026.500,54731.470,200578.600,185812.000,690747.100,0.000
184010.500,189177.500,184505.400,261192.800,54775.990,200589.800,185905.800,690754.100,0.000
184002.100,189169.400,184467.500,260852.700,54754.090,200586.900,185861.700,690633.700,0.000
184035.600,189205.600,184560.700,260906.900,54824.450,200607.600,185999.100,690813.900,0.000
184035.400,189191.400,184536.300,261262.300,54805.320,200594.800,185945.500,691101.100,0.000
184030.500,189171.600,184472.000,260847.500,54752.750,200588.400,185824.000,690653.800,0.000
184036.900,189189.400,184524.200,261018.200,54793.880,200598.700,185918.600,690623.700,0.000
184019.200,189178.700,184482.700,260692.500,54767.230,200596.200,185872.800,690468.300,0.000
184038.500,189207.500,184567.800,260759.800,54828.920,200606.400,185997.700,690607.800,0.000
184017.700,189188.000,184526.500,261114.500,54798.700,200592.400,185935.000,690832.900,0.000
184016.700,189179.600,184469.200,260723.100,54754.540,200602.800,185826.100,690353.400,0.000
184025.600,189195.100,184521.100,260905.200,54795.480,200609.400,185916.800,690269.200,0.000
184016.500,189183.200,184484.300,260600.900,54773.940,200603.900,185878.100,690057.900,0.000
184037.800,189209.200,184569.900,260694.100,54833.480,200613.100,186008.500,690154.700,0.000
184025.600,189187.100,184534.100,261076.300,54803.800,200594.000,185944.300,690354.900,0.000
184009.900,189159.900,184458.600,260673.500,54742.200,200585.000,185818.800,689825.600,0.000
184015.900,189175.800,184508.100,260870.000,54781.540,200590.100,185906.600,689728.900,0.000
184008.200,189171.000,184474.600,260578.100,54760.610,200589.100,185862.800,689526.300,0.000
184031.000,189206.300,184565.500,260689.600,54829.550,200617.200,186006.300,689639.100,0.000
184015.600,189192.600,184529.600,261083.400,54805.410,200611.100,185952.700,689868.100,0.000
184000.000,189168.500,184456.400,260677.500,54745.590,200599.000,185826.500,689362.100,0.000
184005.500,189181.600,184504.500,260859.400,54783.140,200597.300,185909.800,689283.200,0.000
184002.300,189179.200,184477.800,260580.000,54769.020,200604.600,185872.700,689109.800,0.000
184019.100,189203.800,184560.200,260691.900,54827.760,200610.400,185999.000,689230.200,0.000
184014.000,189193.100,184531.100,261084.400,54805.410,200599.200,185947.400,689455.500,0.000
184021.700,189188.700,184477.700,260690.900,54764.370,200617.300,185846.200,688964.100,0.000
184031.500,189206.100,184532.300,260883.500,54808.000,200624.900,185942.700,688892.700,0.000
184012.500,189186.300,184488.700,260577.800,54777.690,200610.800,185891.200,688690.100,0.000
184001.900,189184.100,184544.600,260654.300,54813.720,200594.000,185995.600,688766.200,0.000
183945.800,189121.700,184463.100,260997.000,54741.390,200534.800,185883.200,688945.500,0.000
183908.100,189073.800,184367.600,260542.600,54660.390,200503.700,185734.900,688382.600,0.000
183915.000,189086.000,184417.200,260716.500,54699.370,200502.600,185819.800,688291.500,0.000
183977.600,189144.400,184448.800,260497.700,54738.620,200558.900,185836.400,688195.100,0.000
184028.000,189199.000,184563.800,260649.000,54829.730,200605.500,186002.300,688376.400,0.000
184036.400,189206.100,184548.100,261051.900,54826.690,200622.500,185972.100,688661.800,0.000
184001.500,189158.800,184453.000,260610.100,54740.410,200581.500,185813.300,688225.600,0.000
183999.000,189166.800,184496.500,260786.600,54770.800,200578.300,185889.200,688314.900,0.000
184027.800,189208.300,184506.300,260544.400,54794.860,200624.000,185898.800,688413.400,0.000
184069.700,189261.300,184617.800,260699.200,54882.920,200665.000,186060.600,688843.200,0.000
184037.800,189223.200,184562.800,261057.600,54838.490,200634.800,185982.600,689324.800,0.000
184017.500,189190.000,184478.700,260620.300,54768.570,200614.800,185845.400,689079.600,0.000
184006.600,189182.000,184505.300,260772.500,54782.960,200596.000,185910.500,689239.600,0.000
183961.200,189131.000,184431.700,260436.600,54721.630,200552.000,185831.900,689289.200,0.000
183942.000,189118.900,184478.400,260515.900,54749.620,200531.700,185940.600,689674.800,0.000
183900.600,189067.400,184407.800,260860.300,54683.810,200483.000,185834.900,690247.800,0.000
183895.800,189047.400,184341.500,260428.100,54624.360,200475.200,185702.000,690191.900,0.000
183929.000,189090.000,184418.500,260613.200,54696.420,200514.900,185831.300,690638.200,0.000
183912.400,189084.800,184383.800,260302.900,54679.160,200515.500,185799.000,691012.600,0.000
183906.000,189099.400,184452.100,260410.500,54722.880,200504.500,185906.000,691758.800,0.000
183884.600,189077.400,184408.900,260768.500,54690.520,200483.400,185830.200,692581.900,0.000
183862.700,189039.600,184329.000,260291.400,54622.390,200465.800,185694.600,692576.800,0.000
183855.900,189038.500,184362.800,260426.400,54647.070,200456.100,185769.500,692937.900,0.000
183847.700,189030.900,184326.300,260111.100,54624.000,200451.100,185728.100,693141.300,0.000
183868.000,189055.100,184408.100,260233.000,54681.040,200458.400,185855.100,693589.600,0.000
183850.800,189026.100,184360.100,260577.200,54643.040,200442.000,185784.200,694076.300,0.000
183833.700,189001.100,184282.500,260096.400,54579.480,200432.200,185657.000,693814.000,0.000
183844.400,189020.500,184336.000,260238.500,54622.300,200440.700,185750.000,693983.300,0.000
183847.300,189026.400,184319.200,259944.600,54616.040,200452.400,185727.600,694079.900,0.000
183845.300,189036.900,184392.800,260067.600,54664.500,200448.900,185845.900,694486.500,0.000
183815.600,189002.000,184342.000,260403.600,54624.540,200424.200,185768.800,694896.800,0.000
183796.700,188978.300,184269.900,259908.700,54564.280,200414.700,185640.900,694546.400,0.000
183809.800,189001.600,184328.900,260059.700,54611.570,200428.700,185737.500,694695.300,0.000
183812.900,189003.400,184304.400,259762.900,54598.520,200436.400,185708.000,694717.100,0.000
183834.300,189027.300,184388.800,259920.000,54657.620,200442.500,185837.200,695007.100,0.000
183826.900,189011.700,184349.200,260289.800,54630.080,200430.400,185771.900,695371.200,0.000
183826.400,188998.200,184287.100,259811.600,54582.790,200433.300,185660.100,695028.100,0.000
183836.300,189013.500,184340.900,259967.800,54624.450,200440.400,185752.800,695047.100,0.000
183823.900,189001.300,184307.000,259673.500,54600.220,200432.700,185712.200,694899.300,0.000
183846.200,189033.000,184398.800,259851.000,54667.180,200448.700,185849.300,695022.100,0.000
183849.900,189038.400,184375.000,260231.300,54656.810,200460.700,185800.000,695111.100,0.000
183841.600,189016.500,184307.000,259749.700,54600.750,200454.800,185674.400,694360.000,0.000
183843.300,189032.600,184355.200,259907.500,54639.650,200461.500,185761.800,694009.700,0.000
183835.600,189026.000,184320.400,259619.100,54617.740,200453.400,185718.300,693513.500,0.000
183870.600,189065.700,184420.900,259814.800,54694.180,200475.800,185868.100,693298.300,0.000
183873.000,189058.800,184390.500,260195.200,54678.540,200480.600,185817.100,693101.300,0.000
183856.800,189026.700,184313.200,259688.500,54611.210,200464.000,185686.300,692125.000,0.000
183863.600,189041.900,184366.100,259838.100,54650.550,200467.100,185778.600,691569.100,0.000
183863.000,189041.400,184343.000,259553.800,54638.750,200468.500,185747.300,690927.900,0.000
183880.200,189062.500,184427.200,259739.600,54697.230,200465.100,185871.000,690704.100,0.000
183885.200,189058.000,184399.100,260115.400,54678.000,200463.700,185807.000,690561.600,0.000
183917.700,189078.800,184371.300,259650.900,54663.250,200499.500,185724.000,689769.900,0.000
183928.900,189099.300,184429.000,259804.300,54711.620,200516.500,185825.100,689511.600,0.000
183911.800,189089.900,184393.800,259503.000,54690.070,200516.500,185791.700,689244.300,0.000
183922.500,189116.200,184477.000,259684.400,54754.000,200529.000,185927.600,689406.100,0.000
183911.300,189108.300,184438.000,260040.500,54731.730,200532.000,185865.800,689643.000,0.000
183898.400,189080.000,184366.400,259523.300,54673.800,200525.600,185743.200,689137.100,0.000
183910.600,189098.000,184421.500,259654.400,54715.380,200531.500,185833.600,689066.700,0.000
183914.900,189103.700,184399.400,259340.500,54703.130,200535.900,185799.800,688870.900,0.000
183952.000,189144.300,184498.900,259495.000,54774.830,200554.400,185938.700,688999.300,0.000
183958.700,189141.400,184471.700,259815.800,54757.040,200560.000,185877.400,689170.000,0.000
183957.400,189119.000,184406.100,259256.700,54701.610,200564.100,185753.500,688567.800,0.000
183966.400,189126.500,184454.100,259346.600,54734.950,200550.100,185835.300,688388.900,0.000
183963.700,189122.400,184427.700,259006.900,54720.920,200544.200,185805.900,688096.400,0.000
183976.700,189146.200,184511.300,259127.300,54778.940,200551.900,185931.000,688116.900,0.000
183961.000,189134.700,184466.500,259405.700,54749.890,200547.700,185860.800,688168.300,0.000
183950.800,189116.900,184398.600,258829.500,54696.600,200549.200,185746.200,687659.100,0.000
183956.000,189130.100,184449.700,258911.900,54737.190,200551.900,185835.900,687627.100,0.000
183938.400,189116.400,184411.700,258537.100,54709.380,200541.200,185792.200,687413.100,0.000
183956.600,189141.100,184497.900,258649.000,54768.570,200549.800,185924.800,687454.400,0.000
183947.100,189128.000,184456.300,258928.000,54737.910,200540.800,185852.300,687523.500,0.000
183930.800,189095.400,184376.200,258330.700,54668.880,200523.400,185715.100,687202.300,0.000
183943.300,189108.800,184425.200,258388.700,54707.600,200529.000,185802.200,687118.100,0.000
183951.100,189116.700,184409.500,258020.700,54704.200,200541.800,185782.200,687101.900,0.000
183977.100,189150.200,184503.600,258120.000,54775.630,200559.800,185921.300,687306.900,0.000
183964.500,189130.300,184457.300,258377.500,54742.380,200549.100,185845.600,687462.600,0.000
183958.700,189114.300,184391.600,257793.700,54688.730,200549.400,185729.400,687132.000,0.000
183955.400,189120.400,184433.500,257826.700,54721.010,200549.700,185811.800,687117.100,0.000
183942.900,189114.700,184401.400,257432.200,54701.520,200545.000,185774.700,687079.400,0.000
183969.600,189155.900,184501.600,257544.000,54776.890,200568.700,185920.300,687215.900,0.000
183984.000,189162.100,184484.300,257849.400,54770.720,200583.500,185872.900,687369.000,0.000
183972.700,189137.500,184411.300,257287.600,54706.970,200563.900,185742.400,687047.100,0.000
183980.400,189155.700,184460.800,257345.800,54742.020,200567.600,185825.300,687120.400,0.000
183978.500,189156.000,184438.000,256965.100,54732.360,200579.100,185803.700,687017.800,0.000
184009.500,189197.800,184538.100,257085.000,54809.700,200606.400,185949.900,687087.200,0.000
184007.100,189195.200,184505.600,257352.300,54795.480,200614.500,185897.600,687147.600,0.000
183973.600,189155.300,184417.500,256751.500,54722.710,200587.300,185761.000,686741.300,0.000
183965.600,189153.300,184452.800,256811.400,54745.950,200575.700,185831.000,686733.300,0.000
183957.500,189143.100,184421.900,256441.900,54727.270,200574.200,185798.000,686600.800,0.000
183982.600,189176.800,184512.700,256507.600,54792.980,200594.900,185930.800,686775.400,0.000
183972.200,189164.700,184464.800,256644.400,54758.650,200587.300,185845.900,686915.900,0.000
183969.100,189151.700,184401.200,255898.500,54706.790,200590.500,185728.300,686291.700,0.000
183980.900,189162.300,184450.100,255770.500,54742.460,200594.200,185806.600,686076.400,0.000
183975.500,189159.300,184422.100,255241.100,54727.180,200594.700,185775.500,685764.800,0.000
183988.900,189181.600,184506.200,255270.200,54788.330,200599.300,185906.100,685846.900,0.000
183975.800,189159.500,184465.100,255520.400,54758.560,200587.900,185844.400,686010.800,0.000
183975.300,189152.300,184415.700,255024.000,54718.950,200589.900,185750.100,685508.900,0.000
183990.100,189175.600,184478.400,255232.400,54768.570,200604.100,185852.900,685498.500,0.000
183988.800,189171.000,184458.000,255045.300,54756.950,200609.500,185836.800,685414.300,0.000
184002.300,189190.500,184537.200,255377.100,54808.180,200605.000,185959.500,685689.900,0.000
183998.100,189183.300,184502.600,255911.500,54784.930,200603.400,185901.500,686047.700,0.000
183987.100,189161.400,184441.500,255627.600,54734.510,200598.200,185797.900,685703.600,0.000
183987.300,189165.600,184485.600,255999.500,54766.870,200578.000,185880.600,685807.500,0.000
183995.000,189175.200,184472.600,255964.900,54767.410,200598.200,185868.200,685840.800,0.000
184047.000,189231.600,184590.300,256461.600,54860.210,200637.500,186029.600,686257.900,0.000
184039.900,189223.500,184551.900,257065.500,54836.970,200635.300,185970.000,686680.500,0.000
184009.200,189184.400,184472.900,256803.000,54773.490,200614.200,185852.300,686403.900,0.000
184012.400,189197.500,184522.500,257197.200,54810.230,200618.900,185935.300,686602.000,0.000
184009.300,189200.500,184499.500,257147.100,54803.440,200630.100,185916.300,686696.700,0.000
184034.300,189228.100,184588.800,257601.500,54869.870,200643.400,186050.500,687000.800,0.000
184010.500,189201.800,184534.200,258144.000,54828.030,200617.600,185966.000,687242.100,0.000
183999.400,189184.700,184472.600,257806.200,54778.500,200614.900,185863.000,687079.100,0.000
184014.800,189204.000,184525.500,258106.900,54822.840,200631.100,185955.300,687104.200,0.000
184007.500,189194.700,184493.400,257953.800,54802.640,200630.400,185920.300,687162.100,0.000
184019.200,189213.200,184571.900,258312.700,54854.130,200630.600,186037.300,687406.100,0.000
184013.400,189204.900,184535.400,258776.300,54830.440,200626.000,185971.500,687546.400,0.000
184012.900,189195.800,184481.700,258339.600,54788.240,200627.300,185872.300,687322.100,0.000
184017.400,189209.800,184527.600,258540.000,54824.180,200632.900,185953.900,687439.300,0.000
