EEG 1, EEG 2, EEG 3, EEG 4, EEG 5, EEG 6, EEG 7, EEG 8, TRIG
47576.550,49114.360,52269.080,146475.600,21695.410,54140.820,49631.180,146475.600,0.000
157464.000,162546.000,172667.000,487151.300,71976.300,179151.200,164253.400,487151.300,0.000
235353.000,242926.700,257249.700,734571.100,108009.700,267669.400,245430.700,734571.100,0.000
253510.900,261635.400,275977.700,801303.100,116962.500,288178.600,264211.700,801303.100,0.000
255375.500,263524.700,277091.000,817789.300,118459.000,290147.900,266014.900,817789.300,0.000
244193.500,251940.600,264212.200,793229.100,113984.400,277262.900,254322.300,793229.100,0.000
220942.900,227899.100,238362.500,730188.300,103922.600,250659.200,230110.900,730188.300,0.000
207167.700,213655.700,223108.500,694636.800,98009.270,234888.700,215740.500,694636.800,0.000
215898.000,222657.900,232596.000,727301.400,102231.700,244766.000,224764.100,727301.400,0.000
230758.900,237989.000,248732.500,778897.900,109269.700,261614.300,240180.000,778897.900,0.000
228278.800,235409.800,245790.000,777435.200,108472.300,258707.500,237574.800,777435.200,0.000
209694.400,216202.800,225257.300,725877.100,100314.100,237477.700,218217.400,725877.100,0.000
197517.300,203619.500,211891.700,692829.800,94970.470,223569.400,205521.900,692829.800,0.000
203987.800,210294.400,219025.700,712467.600,98050.410,230904.000,212229.900,716399.200,0.000
215850.300,222535.800,231994.300,739597.200,103610.100,244371.600,224560.000,756732.600,0.000
214206.800,220827.500,230067.300,719450.300,103063.800,242453.700,222833.600,755871.400,0.000
199894.100,206037.500,214280.200,660065.400,96731.650,226116.400,207911.800,715684.700,0.000
190367.200,196193.400,203851.300,615599.000,92515.720,215241.300,197974.100,689324.900,0.000
195081.400,201053.700,209085.500,615411.800,94747.290,220583.300,202871.300,706219.100,0.000
203975.500,210230.700,218839.700,630547.200,98903.940,230678.400,212126.100,736143.100,0.000
202772.600,208984.600,217442.200,617725.800,98491.400,229274.200,210854.900,735320.200,0.000
192066.900,197928.400,205638.600,576668.700,93737.260,217056.700,199676.900,705038.700,0.000
184788.700,190411.000,197680.700,544988.800,90502.200,208752.000,192081.600,684659.600,0.000
187907.600,193625.000,201168.200,544871.900,91979.580,212287.500,195335.400,695867.300,0.000
194137.900,200051.500,208018.500,556077.900,94887.630,219361.300,201832.200,716780.900,0.000
193204.900,199082.400,206940.800,547448.300,94546.650,218276.400,200842.800,715897.000,0.000
185504.800,191127.500,198443.400,518450.200,91112.960,209490.800,192789.300,694030.800,0.000
180112.600,185557.300,192546.300,495483.500,88709.770,203337.100,187158.200,678790.900,0.000
181880.700,187378.700,194545.500,494285.000,89559.740,205334.300,189011.000,685287.000,0.000
185849.300,191473.500,198925.900,501209.600,91421.480,209837.500,193158.800,698645.400,0.000
185089.200,190688.400,198061.700,495069.200,91131.410,208962.000,192354.400,697633.600,0.000
179833.000,185262.400,192261.300,475216.500,88780.620,202971.800,186849.600,682693.700,0.000
175973.500,181277.000,188043.700,458809.800,87054.770,198572.600,182820.000,671389.400,0.000
176628.400,181946.900,188813.800,456220.400,87383.660,199308.500,183520.000,672923.100,0.000
178737.900,184117.800,191156.100,459143.300,88379.600,201697.000,185733.100,678316.900,0.000
178088.400,183442.800,190423.300,454506.900,88114.550,200946.500,185039.000,675176.400,0.000
174782.000,180028.300,186768.700,441617.100,86631.000,197175.800,181559.400,663859.100,0.000
172165.300,177327.100,183910.900,430232.200,85462.660,194190.200,178821.700,654616.500,0.000
171969.500,177122.800,183741.300,426406.900,85403.380,193957.600,178636.900,652911.100,0.000
172616.100,177790.400,184484.400,426002.000,85729.290,194688.500,179333.100,653979.900,0.000
172015.200,177171.200,183821.700,422317.300,85473.030,194005.500,178699.700,651278.800,0.000
170186.900,175281.700,181798.000,414673.700,84643.900,191922.900,176765.200,644717.000,0.000
168527.900,173565.900,179983.600,407121.700,83898.210,190025.300,175022.800,638603.700,0.000
167705.600,172712.900,179113.600,402350.400,83546.670,189073.700,174178.800,635125.100,0.000
167256.600,172246.600,178650.800,399345.900,83364.780,188551.200,173727.400,632912.800,0.000
166686.700,171658.800,178030.400,396240.000,83111.350,187903.500,173125.600,630360.800,0.000
165957.400,170909.700,177222.700,392416.000,82776.380,187080.800,172342.300,627267.200,0.000
165019.300,169944.200,176201.000,387702.600,82356.880,186015.600,171358.100,623521.900,0.000
163752.300,168633.500,174839.800,382280.000,81798.870,184567.600,170054.800,618841.100,0.000
162504.300,167342.800,173502.100,377377.900,81244.590,183141.300,168772.600,614287.600,0.000
161934.100,166756.200,172890.000,374614.400,80979.390,182495.400,168172.700,611809.800,0.000
161971.100,166798.400,172929.800,373456.700,80984.960,182547.600,168192.900,611154.400,0.000
161558.800,166375.900,172483.000,370794.400,80803.290,182084.100,167762.200,609125.400,0.000
160022.600,164790.400,170820.500,365042.200,80122.230,180331.400,166179.800,603711.600,0.000
158250.000,162961.600,168905.300,358913.100,79325.500,178309.900,164349.400,597610.600,0.000
157676.600,162370.300,168291.500,356366.100,79054.130,177660.400,163744.200,595162.900,0.000
158216.900,162926.800,168883.700,356973.300,79284.240,178281.200,164286.200,596105.600,0.000
158160.600,162868.300,168824.500,355740.700,79259.830,178220.100,164223.500,595251.400,0.000
156480.800,161133.400,166999.800,349915.300,78508.270,176306.500,162489.900,589475.600,0.000
154399.700,158985.200,164744.600,343098.300,77566.920,173936.700,160338.500,582473.100,0.000
153822.300,158390.700,164130.100,340703.200,77291.570,173281.000,159729.200,580035.400,0.000
154655.300,159252.400,165048.100,342407.700,77652.340,174230.100,160574.400,581914.900,0.000
154818.100,159420.800,165228.400,342137.500,77720.540,174413.600,160736.200,581805.300,0.000
153091.100,157634.500,163345.700,336459.500,76937.800,172444.100,158947.500,575957.200,0.000
150868.400,155336.400,160929.500,329407.400,75925.410,169912.600,156643.600,568557.600,0.000
150281.400,154728.500,160303.900,327118.800,75643.620,169246.300,156025.700,566111.900,0.000
151238.900,155714.900,161361.100,329368.300,76059.670,170337.500,157005.700,568411.600,0.000
151516.800,156000.400,161669.800,329664.100,76178.410,170651.900,157289.800,568704.300,0.000
149819.800,154247.200,159821.400,324289.600,75407.770,168717.100,155532.200,562992.600,0.000
147577.300,151931.700,157385.600,317353.800,74384.070,166165.400,153209.300,555578.300,0.000
146972.300,151307.500,156742.500,315151.100,74091.700,165481.500,152575.500,553125.800,0.000
147929.700,152298.200,157801.600,317543.100,74506.500,166577.500,153559.000,555473.400,0.000
148242.500,152622.500,158148.800,318114.700,74639.200,166936.500,153881.400,555916.600,0.000
146629.400,150954.700,156389.200,313140.400,73903.510,165095.900,152206.800,550487.800,0.000
144466.600,148722.200,154038.800,306544.500,72914.040,162631.500,149962.000,543332.800,0.000
143850.400,148090.100,153386.600,304414.000,72616.950,161936.800,149320.800,540876.100,0.000
144722.400,148994.800,154358.800,306700.300,72995.240,162940.300,150225.200,543006.800,0.000
145010.300,149294.200,154683.500,307363.600,73117.300,163274.400,150526.900,543412.300,0.000
143509.300,147740.600,153044.900,302845.900,72427.750,161562.800,148966.000,538350.400,0.000
141485.300,145645.500,150840.500,296736.000,71495.080,159253.300,146858.500,531634.400,0.000
140866.500,145004.400,150180.500,294674.900,71194.520,158549.500,146209.000,529184.300,0.000
141609.900,145774.000,151009.600,296690.000,71514.930,159401.300,146977.500,530935.600,0.000
141843.200,146019.700,151274.500,297307.700,71613.240,159672.500,147222.600,531182.900,0.000
140473.100,144609.100,149782.300,293266.500,70986.210,158116.500,145801.600,526534.100,0.000
138619.200,142697.800,147768.200,287726.200,70134.350,156009.700,143876.800,520363.500,0.000
137992.700,142051.300,147102.900,285717.500,69829.080,155299.100,143222.200,517924.200,0.000
138567.300,142643.600,147748.000,287329.500,70065.370,155953.300,143812.200,519192.700,0.000
138712.800,142793.400,147914.200,287782.000,70113.790,156118.900,143959.700,519198.800,0.000
137475.100,141514.200,146561.200,284192.500,69538.540,154712.700,142670.900,514973.800,0.000
135809.100,139794.300,144747.600,279246.000,68767.800,152822.800,140941.300,509397.400,0.000
135180.000,139145.000,144078.800,277285.900,68461.960,152112.800,140289.700,506979.500,0.000
135578.300,139556.300,144534.700,278449.100,68622.180,152568.400,140703.200,507732.500,0.000
135630.200,139612.600,144604.400,278679.600,68631.270,152628.200,140755.800,507460.300,0.000
134523.300,138472.100,143400.300,275505.600,68115.120,151371.100,139601.400,503644.800,0.000
133051.000,136954.400,141800.600,271146.500,67431.690,149701.900,138069.500,498669.500,0.000
132434.400,136318.300,141141.700,269231.800,67132.440,149005.600,137426.000,496283.600,0.000
132665.200,136553.000,141408.800,269919.200,67214.970,149268.400,137661.300,496523.200,0.000
132615.300,136500.200,141364.200,269889.100,67172.650,149212.400,137608.700,495961.000,0.000
131621.800,135475.200,140282.800,267105.000,66701.780,148087.100,136576.300,492526.900,0.000
130324.400,134135.300,138873.600,263340.200,66091.980,146616.300,135230.700,488125.500,0.000
129708.900,133500.000,138217.700,261526.200,65791.470,145920.700,134593.100,485775.600,0.000
129774.800,133570.600,138309.300,261815.500,65801.780,146001.200,134663.100,485531.900,0.000
129629.900,133424.500,138165.300,261564.900,65717.940,145840.900,134513.300,484686.500,0.000
128753.900,132520.900,137212.900,259152.200,65300.700,144843.800,133594.600,481592.300,0.000
127636.200,131365.800,135998.200,255940.800,64773.190,143570.200,132425.100,477717.500,0.000
127031.200,130738.900,135351.100,254216.500,64476.670,142883.300,131795.600,475409.700,0.000
126950.000,130653.700,135278.700,254143.500,64419.810,142796.500,131717.100,474735.700,0.000
126717.400,130416.500,135036.900,253693.800,64297.170,142540.900,131483.800,473634.700,0.000
125926.900,129606.600,134181.300,251598.300,63918.680,141652.300,130665.900,470838.800,0.000
124943.800,128601.800,133122.000,248863.000,63454.130,140545.900,129649.800,467432.800,0.000
124343.300,127990.200,132487.000,247219.100,63165.540,139872.800,129030.700,465171.900,0.000
124140.100,127782.800,132284.800,246824.800,63057.940,139649.700,128822.200,464127.100,0.000
123838.500,127470.400,131968.000,246183.500,62903.620,139313.300,128510.900,462799.700,0.000
123138.700,126743.200,131207.600,244351.000,62560.620,138518.000,127776.900,460257.300,0.000
122291.500,125863.900,130288.300,242015.500,62148.140,137553.400,126890.400,457255.100,0.000
121700.500,125253.100,129656.000,240412.600,61855.530,136886.400,126278.200,455035.800,0.000
121384.100,124930.900,129328.300,239705.200,61693.180,136536.500,125957.500,453673.600,0.000
121005.800,124549.300,128933.100,238857.200,61505.050,136119.000,125574.300,452149.400,0.000
120363.000,123893.100,128242.500,237195.300,61192.130,135399.000,124906.800,449814.900,0.000
119623.400,123135.200,127444.800,235155.300,60833.470,134564.200,124133.300,447152.600,0.000
119048.000,122544.000,126828.700,233569.300,60548.910,133913.500,123530.800,444981.900,0.000
118651.400,122132.400,126408.200,232589.100,60345.330,133465.200,123117.800,443373.100,0.000
118227.900,121691.400,125955.900,231553.700,60130.510,132986.700,122680.000,441692.800,0.000
117647.200,121089.000,125327.500,230025.700,59842.740,132330.300,122073.800,439524.800,0.000
116999.800,120420.900,124629.500,228241.300,59526.920,131598.500,121398.800,437138.900,0.000
116438.900,119842.800,124030.100,226706.900,59251.020,130962.500,120813.600,435015.700,0.000
115980.000,119369.600,123543.100,225559.700,59020.040,130440.200,120333.000,433217.800,0.000
115517.800,118894.500,123050.500,224422.300,58788.770,129917.300,119849.200,431415.900,0.000
114981.400,118342.900,122471.700,223039.300,58523.370,129313.400,119285.100,429380.400,0.000
114403.100,117748.500,121849.100,221496.700,58240.900,128663.600,118683.600,427217.000,0.000
113848.300,117177.200,121256.900,220043.500,57968.950,128039.900,118112.100,425140.500,0.000
113330.400,116644.200,120707.600,218794.900,57709.670,127456.900,117578.700,423201.500,0.000
112821.600,116121.400,120167.300,217592.600,57451.240,126883.500,117051.800,421301.700,0.000
112305.100,115586.400,119611.800,216333.700,57186.870,126298.600,116507.200,419360.300,0.000
111779.800,115041.600,119046.300,214999.000,56923.860,125702.300,115954.500,417365.600,0.000
111245.700,114490.400,118474.800,213641.400,56662.330,125096.800,115398.400,415333.800,0.000
110710.300,113939.200,117904.000,212359.100,56400.670,124490.800,114843.700,413305.600,0.000
110195.000,113410.100,117356.200,211153.100,56148.620,123910.700,114312.700,411349.600,0.000
109709.200,112909.700,116836.900,210018.900,55908.170,123365.100,113808.400,409486.900,0.000
109220.500,112407.100,116315.100,208850.100,55666.480,122815.500,113301.900,407620.200,0.000
108686.400,111859.300,115746.100,207561.900,55402.100,122214.400,112749.000,405628.100,0.000
108121.200,111276.800,115143.400,206246.000,55121.320,121576.700,112162.300,403543.700,0.000
107591.700,110728.700,114576.900,205019.000,54857.850,120976.000,111610.000,401549.300,0.000
107124.400,110246.600,114074.000,203948.600,54620.240,120446.200,111116.200,399738.900,0.000
106662.000,109774.300,113578.800,202868.300,54384.560,119927.400,110632.700,397961.500,0.000
106137.900,109236.400,113017.700,201600.500,54121.960,119338.500,110090.200,396005.500,0.000
105562.600,108642.600,112400.900,200226.700,53836.570,118689.500,109495.300,393895.900,0.000
105014.800,108081.400,111815.800,198925.100,53563.460,118076.200,108932.300,391882.200,0.000
104544.300,107601.900,111314.200,197820.400,53324.580,117555.000,108447.700,390104.700,0.000
104097.400,107143.000,110839.600,196737.700,53100.520,117060.200,107988.700,388386.800,0.000
103586.600,106614.300,110295.200,195451.100,52848.190,116487.100,107459.900,386464.500,0.000
103020.400,106029.500,109688.800,194037.700,52570.330,115843.800,106866.900,384353.600,0.000
102493.000,105485.400,109123.100,192713.700,52312.080,115240.800,106311.500,382338.600,0.000
102050.800,105027.400,108646.200,191618.600,52089.200,114734.900,105840.100,380585.700,0.000
101624.400,104588.600,108187.600,190557.700,51871.660,114252.000,105390.200,378906.100,0.000
101115.500,104067.700,107642.600,189286.700,51615.570,113682.500,104865.300,377012.900,0.000
100530.600,103467.300,107017.900,187874.100,51323.900,113031.700,104269.600,374916.900,0.000
99973.910,102894.300,106426.200,186540.700,51045.860,112415.300,103706.000,372912.100,0.000
99508.820,102412.700,105931.600,185449.600,50807.900,111899.000,103228.000,371173.600,0.000
99080.360,101970.600,105475.700,184420.200,50590.590,111417.100,102781.100,369517.900,0.000
98594.430,101472.100,104956.700,183197.600,50352.600,110865.100,102270.800,367657.800,0.000
98046.870,100908.600,104369.900,181836.000,50087.310,110239.800,101692.600,365596.800,0.000
97525.380,100371.100,103811.700,180546.100,49831.440,109642.900,101139.900,363617.100,0.000
97081.340,99913.130,103336.000,179490.100,49604.430,109134.900,100665.600,361890.000,0.000
96654.710,99472.910,102879.600,178496.200,49382.770,108650.400,100217.400,360244.400,0.000
96158.970,98961.270,102348.100,177317.100,49130.420,108094.000,99706.770,358408.200,0.000
95600.630,98387.390,101750.100,175996.700,48853.090,107471.600,99134.890,356382.000,0.000
95068.410,97844.950,101184.100,174727.800,48592.230,106879.600,98591.360,354428.600,0.000
94612.710,97382.140,100701.600,173675.900,48364.530,106373.500,98123.340,352710.100,0.000
94180.770,96942.520,100245.900,172689.700,48146.240,105894.800,97680.630,351071.100,0.000
93695.980,96446.070,99732.080,171541.300,47903.960,105354.100,97181.160,349262.400,0.000
93160.420,95893.450,99160.880,170273.100,47638.310,104749.500,96624.040,347280.700,0.000
92644.880,95358.120,98609.780,169051.600,47379.700,104163.200,96085.900,345359.700,0.000
92195.200,94888.070,98125.730,168030.800,47146.380,103650.700,95610.960,343646.800,0.000
91771.800,94445.910,97668.440,167079.800,46927.020,103167.600,95162.880,342008.500,0.000
91300.140,93956.430,97160.180,165988.000,46688.270,102630.200,94667.510,340223.900,0.000
90771.730,93412.000,96594.580,164785.600,46423.090,102032.600,94118.800,338286.900,0.000
90256.700,92885.820,96047.450,163613.600,46165.790,101454.800,93589.800,336400.100,0.000
89804.140,92424.820,95567.770,162621.200,45939.010,100948.900,93123.840,334693.200,0.000
89375.720,91987.070,95114.340,161693.600,45726.020,100469.800,92682.480,333053.700,0.000
88907.660,91506.780,94616.580,160636.700,45494.140,99943.890,92197.130,331292.500,0.000
88397.920,90982.090,94071.810,159477.500,45240.320,99369.520,91665.550,329402.300,0.000
87901.350,90469.880,93540.270,158328.200,44991.230,98811.090,91149.110,327551.600,0.000
87450.740,90005.220,93057.450,157319.500,44761.460,98306.640,90680.620,325849.000,0.000
87013.520,89557.220,92591.230,156358.200,44538.360,97818.470,90229.350,324204.400,0.000
86543.120,89075.320,92088.590,155284.600,44298.840,97289.790,89741.170,322463.800,0.000
86044.200,88561.220,91553.700,154132.700,44046.480,96724.680,89219.030,320619.000,0.000
85560.200,88058.760,91036.110,152992.000,43804.020,96174.700,88714.410,318805.700,0.000
85113.410,87592.000,90558.350,151974.600,43576.380,95665.890,88247.280,317111.200,0.000
84679.590,87142.310,90094.840,151002.300,43353.480,95172.350,87793.220,315463.400,0.000
84219.580,86668.210,89602.230,149940.300,43118.750,94650.690,87312.040,313740.400,0.000
83732.260,86165.020,89079.340,148822.500,42872.720,94099.550,86804.150,311936.300,0.000
83253.200,85671.400,88566.250,147716.700,42632.710,93561.020,86309.050,310156.900,0.000
82802.080,85207.850,88084.070,146728.100,42404.300,93058.380,85844.270,308471.400,0.000
82360.330,84755.960,87614.950,145801.100,42181.920,92569.160,85393.650,306825.300,0.000
81899.000,84284.700,87126.560,144823.200,41952.410,92057.480,84924.320,305125.500,0.000
81419.020,83794.530,86618.920,143821.000,41715.070,91521.730,84432.950,303364.800,0.000
80948.070,83312.960,86121.130,142836.900,41482.560,90992.220,83948.080,301619.900,0.000
80501.200,82852.620,85647.180,141964.900,41258.140,90486.870,83484.550,299945.600,0.000
80062.950,82402.150,85183.120,141161.000,41037.490,89993.230,83033.880,298306.200,0.000
79609.900,81937.940,84701.720,140322.200,40809.140,89486.770,82570.130,296631.300,0.000
79141.170,81454.980,84199.820,139460.700,40569.960,88961.200,82087.040,294911.900,0.000
78675.020,80972.800,83700.500,138591.400,40330.450,88435.140,81605.180,293202.100,0.000
78223.800,80505.800,83218.950,137795.100,40097.050,87924.620,81136.130,291540.300,0.000
77782.510,80049.770,82749.770,137039.700,39870.300,87423.730,80676.060,289902.700,0.000
77339.190,79589.740,82275.540,136239.400,39644.450,86917.910,80210.220,288243.400,0.000
76888.430,79121.320,81791.610,135407.800,39416.630,86404.630,79736.720,286556.500,0.000
76435.800,78654.110,81309.300,134549.800,39190.090,85893.680,79268.680,284876.800,0.000
75990.590,78196.650,80837.040,133741.500,38966.370,85393.930,78811.130,283230.500,0.000
75549.600,77746.660,80370.370,132957.200,38743.700,84901.490,78359.110,281601.500,0.000
75104.950,77293.110,79897.850,132120.400,38517.740,84405.750,77900.130,279959.700,0.000
74657.450,76833.640,79420.090,131250.600,38290.960,83905.600,77434.950,278301.400,0.000
74212.930,76376.830,78945.800,130353.500,38067.380,83407.570,76973.720,276647.700,0.000
73778.610,75930.200,78481.410,129507.200,37848.120,82916.710,76519.020,275016.000,0.000
73350.940,75490.460,78024.700,128694.400,37633.250,82429.950,76070.470,273398.500,0.000
72917.670,75043.420,77562.060,127840.300,37415.130,81939.520,75619.330,271777.200,0.000
72477.470,74587.470,77092.730,126958.200,37194.030,81446.930,75166.400,270148.500,0.000
72035.800,74132.830,76624.330,126041.500,36974.080,80955.940,74716.670,268520.700,0.000
71596.610,73683.330,76158.510,125155.900,36753.520,80467.210,74267.020,266902.400,0.000
71162.200,73237.810,75696.320,124297.500,36534.090,79980.910,73820.450,265294.500,0.000
70731.110,72791.850,75232.820,123412.800,36311.700,79491.980,73370.200,263689.500,0.000
70303.910,72348.790,74770.210,122519.600,36088.430,79001.950,72916.260,262083.700,0.000
69879.340,71911.520,74313.520,121608.000,35870.860,78517.130,72468.590,260479.800,0.000
69452.200,71471.270,73857.430,120733.600,35653.480,78034.840,72023.630,258881.200,0.000
69022.830,71026.990,73401.340,119888.400,35435.740,77552.650,71581.370,257289.200,0.000
68594.580,70582.030,72944.770,119022.000,35218.240,77071.850,71140.060,255704.100,0.000
68166.760,70137.270,72486.660,118141.800,34999.340,76591.160,70696.950,254122.300,0.000
67735.430,69692.440,72026.760,117224.200,34778.380,76105.840,70250.300,252537.900,0.000
67305.480,69250.490,71568.970,116327.800,34558.940,75620.410,69801.520,250952.900,0.000
66884.660,68819.450,71122.860,115457.700,34349.770,75146.320,69363.520,249374.900,0.000
66467.970,68393.610,70681.660,114566.100,34143.670,74679.400,68931.240,247809.100,0.000
66051.090,67966.580,70237.670,113659.800,33933.590,74212.050,68497.650,246252.300,0.000
65633.620,67539.300,69792.310,112722.500,33722.270,73743.690,68065.300,244693.400,0.000
65212.770,67106.960,69343.590,111811.800,33507.930,73271.230,67628.960,243128.800,0.000
64792.040,66672.670,68895.450,110934.900,33294.200,72796.920,67192.840,241567.500,0.000
64377.180,66244.000,68450.700,110048.300,33083.000,72327.770,66759.670,240019.700,0.000
63965.940,65821.870,68009.050,109150.300,32872.530,71864.110,66327.780,238481.800,0.000
63553.780,65401.910,67570.480,108225.000,32664.300,71401.950,65899.750,236941.200,0.000
63140.710,64978.400,67132.700,107344.400,32458.050,70939.680,65474.670,235396.000,0.000
62729.140,64553.480,66696.880,106521.800,32253.630,70477.320,65053.260,233855.600,0.000
62319.890,64130.760,66260.270,105691.800,32046.690,70015.770,64629.670,232328.200,0.000
61910.800,63710.690,65822.040,104832.000,31837.060,69557.510,64203.900,230811.100,0.000
61500.270,63289.540,65384.650,103937.800,31628.690,69098.740,63780.180,229292.600,0.000
61091.440,62865.210,64949.210,103091.200,31421.500,68635.390,63354.980,227768.000,0.000
60686.340,62444.080,64519.040,102307.500,31217.340,68172.250,62931.950,226244.800,0.000
60283.830,62028.510,64088.530,101503.100,31012.310,67713.990,62506.980,224734.200,0.000
59886.820,61620.610,63660.020,100641.100,30809.350,67264.630,62083.910,223236.700,0.000
59492.540,61217.340,63238.770,99745.060,30613.240,66820.810,61672.360,221740.400,0.000
59090.310,60805.880,62814.310,98915.440,30414.240,66370.820,61261.490,220236.800,0.000
58681.690,60389.010,62386.050,98162.660,30211.760,65915.990,60848.700,218733.500,0.000
58279.160,59977.070,61957.900,97374.860,30009.540,65467.040,60432.790,217242.100,0.000
57885.500,59569.170,61531.770,96492.230,29807.950,65023.780,60014.190,215760.900,0.000
57491.550,59159.020,61108.650,95569.910,29607.320,64578.110,59600.090,214279.600,0.000
57094.460,58746.020,60685.720,94733.490,29406.220,64128.680,59189.540,212794.900,0.000
56699.580,58338.030,60266.690,93987.470,29208.840,63681.940,58785.200,211312.600,0.000
56308.800,57937.460,59847.180,93197.980,29011.270,63242.160,58378.070,209840.300,0.000
55922.000,57543.430,59427.950,92297.990,28813.020,62809.110,57967.530,208378.300,0.000
55537.850,57152.840,59017.090,91368.040,28621.830,62378.660,57566.260,206917.800,0.000
55148.810,56752.830,58605.060,90530.300,28429.240,61940.510,57164.600,205453.100,0.000
54750.800,56341.240,58186.070,89782.240,28228.570,61492.660,56757.210,203989.600,0.000
54352.200,55930.730,57761.160,89002.000,28022.050,61047.710,56343.170,202536.800,0.000
53963.940,55532.230,57341.050,88123.730,27819.620,60614.220,55930.660,201094.900,0.000
53585.390,55143.570,56935.440,87220.070,27628.750,60186.630,55531.730,199654.600,0.000
53204.430,54749.020,56530.220,86392.050,27436.960,59751.810,55133.390,198209.800,0.000
52817.960,54347.550,56121.430,85642.520,27241.600,59310.760,54733.850,196765.400,0.000
52434.110,53950.360,55710.340,84868.070,27045.690,58876.070,54332.050,195329.300,0.000
52053.240,53557.960,55297.600,84004.550,26848.020,58446.920,53927.360,193902.100,0.000
51668.090,53163.750,54888.320,83127.560,26651.710,58015.820,53529.960,192479.600,0.000
51281.310,52767.970,54481.420,82324.250,26458.390,57585.340,53137.480,191057.800,0.000
50898.450,52375.640,54078.380,81586.730,26269.420,57157.670,52749.280,189637.400,0.000
50515.680,51983.480,53669.980,80825.360,26075.600,56728.770,52353.160,188222.800,0.000
50132.590,51590.290,53257.520,79992.350,25876.670,56299.190,51949.760,186816.000,0.000
49752.020,51198.210,52851.540,79148.170,25681.260,55869.700,51552.710,185411.500,0.000
49377.490,50810.410,52450.500,78346.630,25490.480,55443.710,51159.500,184005.500,0.000
49008.260,50429.270,52057.000,77599.140,25307.750,55025.270,50776.500,182603.700,0.000
48636.630,50047.110,51659.790,76849.190,25121.730,54608.010,50390.770,181209.900,0.000
48260.780,49661.110,51255.510,76045.320,24926.860,54187.390,49996.120,179821.200,0.000
47881.340,49272.620,50852.960,75238.550,24731.110,53763.540,49605.270,178435.000,0.000
47504.340,48886.400,50452.640,74463.890,24537.880,53342.480,49216.910,177050.800,0.000
47138.010,48511.220,50064.520,73728.080,24356.680,52932.290,48841.830,175671.600,0.000
46775.310,48138.020,49678.380,72995.050,24178.480,52525.930,48468.590,174299.100,0.000
46412.140,47761.980,49288.820,72225.790,23997.100,52118.240,48090.140,172932.500,0.000
46048.320,47384.930,48902.040,71453.880,23816.230,51707.000,47714.960,171567.200,0.000
45676.740,46999.890,48504.820,70675.990,23624.610,51286.240,47328.360,170199.600,0.000
45298.800,46611.250,48103.000,69904.790,23427.160,50861.570,46939.130,168834.500,0.000
44920.890,46224.460,47700.510,69145.730,23228.140,50439.620,46549.130,167475.700,0.000
44550.040,45844.680,47302.390,68379.200,23032.780,50025.160,46160.590,166122.300,0.000
44187.280,45475.820,46917.540,67634.700,22849.560,49619.670,45786.140,164773.200,0.000
43824.350,45107.130,46531.710,66887.550,22666.950,49215.520,45410.770,163426.200,0.000
43458.450,44731.350,46144.690,66145.070,22482.670,48807.480,45035.580,162082.800,0.000
43093.330,44351.700,45756.790,65430.880,22295.510,48395.690,44656.960,160745.200,0.000
42735.150,43978.140,45371.700,64730.530,22108.670,47987.200,44277.770,159414.100,0.000
42385.800,43616.590,44998.140,64058.980,21932.260,47588.800,43913.380,158089.300,0.000
42039.630,43260.250,44624.960,63366.890,21758.840,47196.410,43549.500,156766.300,0.000
41690.770,42903.140,44252.990,62657.470,21585.960,46803.350,43186.860,155444.200,0.000
41334.550,42539.630,43876.680,61969.740,21406.370,46404.500,42818.880,154125.600,0.000
40973.360,42170.410,43493.690,61296.500,21218.760,46000.950,42442.900,152812.200,0.000
40613.360,41801.950,43114.300,60651.970,21035.710,45601.110,42076.390,151504.500,0.000
40256.420,41434.840,42732.700,59975.660,20853.960,45206.840,41711.270,150199.700,0.000
39904.040,41071.020,42355.670,59270.150,20675.200,44813.070,41350.130,148896.800,0.000
39554.160,40708.560,41982.160,58588.400,20496.970,44416.650,40988.020,147596.900,0.000
39204.560,40345.440,41608.190,57928.840,20316.280,44018.640,40621.850,146301.200,0.000
38857.040,39984.810,41239.110,57298.540,20139.000,43622.850,40263.180,145010.700,0.000
38513.840,39629.610,40869.290,56626.960,19962.790,43233.950,39904.330,143723.300,0.000
38173.230,39281.010,40505.580,55928.740,19792.380,42851.330,39554.070,142438.800,0.000
37828.570,38930.590,40142.130,55275.100,19621.830,42467.840,39206.430,141158.700,0.000
37477.410,38571.410,39770.860,54656.090,19443.940,42078.190,38851.370,139883.400,0.000
37121.650,38205.350,39395.320,54055.170,19261.800,41682.330,38494.050,138611.000,0.000
36770.260,37842.730,39016.020,53385.680,19076.630,41289.050,38129.130,137339.500,0.000
36432.410,37494.860,38652.080,52667.140,18902.910,40907.270,37776.570,136072.300,0.000
36100.610,37152.010,38298.200,51984.850,18735.960,40530.270,37432.770,134810.500,0.000
35765.780,36803.540,37940.180,51341.530,18564.990,40149.650,37083.540,133551.300,0.000
35426.510,36452.470,37581.090,50733.670,18394.420,39766.700,36735.910,132295.600,0.000
35087.080,36104.440,37217.940,50071.710,18222.630,39387.270,36382.350,131044.000,0.000
34753.020,35763.750,36862.270,49363.820,18056.250,39012.900,36034.490,129795.400,0.000
34417.950,35420.110,36507.750,48695.700,17887.670,38634.760,35687.440,128548.200,0.000
34079.490,35070.530,36149.320,48081.310,17713.290,38253.350,35337.960,127304.600,0.000
33741.070,34722.140,35794.230,47518.820,17541.750,37873.790,34996.340,126068.000,0.000
33401.560,34372.420,35430.630,46903.090,17364.470,37492.550,34644.320,124835.000,0.000
33064.720,34024.500,35069.620,46242.330,17188.870,37112.260,34295.200,123604.000,0.000
32734.690,33681.740,34718.150,45639.770,17020.970,36738.490,33957.190,122377.400,0.000
32414.020,33347.690,34375.700,45109.350,16861.440,36373.710,33625.980,121156.800,0.000
32094.080,33017.160,34037.140,44630.680,16705.530,36009.320,33298.360,119940.200,0.000
31765.310,32679.100,33683.660,44092.040,16536.930,35637.850,32954.660,118723.700,0.000
31438.920,32345.230,33335.490,43519.520,16372.200,35271.370,32619.520,117511.900,0.000
31116.530,32016.570,32996.640,43023.910,16214.550,34910.000,32295.920,116306.600,0.000
30787.540,31679.930,32650.940,42602.550,16049.640,34541.830,31964.940,115104.000,0.000
30455.210,31339.690,32304.890,42239.210,15884.140,34170.860,31635.820,113905.200,0.000
30124.590,31001.020,31954.870,41831.630,15716.510,33802.550,31301.130,112710.700,0.000
29796.470,30664.980,31608.900,41388.730,15552.250,33437.490,30972.860,111519.500,0.000
29474.670,30334.350,31271.880,41019.520,15395.070,33078.560,30653.890,110333.300,0.000
29159.970,30009.470,30939.520,40729.400,15240.440,32723.430,30333.830,109151.800,0.000
28845.270,29684.950,30608.220,40481.990,15085.090,32365.130,30012.460,107972.700,0.000
28526.350,29355.960,30265.620,40153.140,14919.820,32003.000,29676.840,106793.000,0.000
28205.310,29026.260,29923.900,39746.360,14753.900,31641.960,29344.990,105615.300,0.000
27882.540,28695.260,29586.700,39364.640,14589.720,31281.550,29018.470,104444.300,0.000
27561.770,28364.890,29251.540,39013.790,14426.230,30922.010,28689.150,103279.400,0.000
27248.710,28043.500,28924.980,38675.980,14271.560,30569.410,28368.710,102117.100,0.000
26939.260,27725.960,28592.470,38245.510,14113.390,30220.570,28039.500,100955.000,0.000
26624.860,27401.860,28253.790,37729.360,13948.360,29864.970,27704.300,99793.670,0.000
26309.030,27073.580,27915.010,37235.390,13782.270,29505.780,27371.650,98634.630,0.000
26003.010,26754.860,27584.210,36785.490,13623.590,29157.140,27048.160,97480.290,0.000
25705.030,26446.710,27264.760,36368.390,13475.260,28819.250,26738.900,96332.420,0.000
25403.810,26135.000,26936.680,35866.140,13319.760,28478.900,26416.960,95186.830,0.000
25095.290,25816.650,26605.450,35274.300,13159.900,28131.040,26089.530,94040.950,0.000
24784.510,25496.920,26279.260,34704.100,13002.870,27782.010,25765.710,92897.170,0.000
24474.340,25178.550,25955.300,34176.890,12847.240,27436.500,25443.930,91757.750,0.000
24160.750,24860.040,25631.090,33677.450,12692.090,27091.280,25128.580,90622.960,0.000
23848.980,24543.300,25299.280,33108.100,12532.470,26748.020,24805.740,89492.090,0.000
23547.510,24233.450,24973.950,32474.910,12377.670,26409.270,24488.550,88365.840,0.000
23250.980,23923.940,24653.020,31868.010,12223.120,26067.320,24173.820,87241.700,0.000
22955.210,23612.440,24329.970,31304.110,12064.730,25722.370,23855.130,86118.460,0.000
22660.860,23303.170,24011.050,30784.100,11910.710,25380.760,23544.450,84999.660,0.000
22367.590,22995.010,23688.700,30212.420,11754.700,25043.420,23228.200,83884.950,0.000
22078.120,22693.520,23375.560,29593.550,11606.990,24714.310,22923.130,82774.550,0.000
21787.670,22395.570,23070.170,29021.860,11466.240,24389.160,22629.380,81669.770,0.000
21487.080,22090.260,22757.390,28503.380,11317.890,24057.140,22328.360,80568.700,0.000
21180.950,21782.480,22442.840,28030.010,11169.170,23723.000,22030.110,79471.040,0.000
20878.630,21479.150,22124.730,27512.390,11020.710,23394.510,21727.420,78375.860,0.000
20579.080,21177.940,21809.240,26950.150,10873.800,23065.530,21426.890,77282.840,0.000
20283.090,20877.180,21499.200,26433.370,10728.560,22733.260,21129.480,76194.170,0.000
19996.520,20582.160,21195.750,25970.530,10586.230,22405.740,20832.930,75110.820,0.000
19714.900,20290.370,20898.040,25543.370,10447.080,22082.060,20542.530,74031.910,0.000
19430.990,19992.810,20589.550,25058.180,10298.480,21755.750,20240.450,72955.110,0.000
19143.900,19690.760,20278.180,24517.310,10147.140,21426.570,19938.890,71880.380,0.000
18853.920,19387.190,19969.090,24004.420,9997.697,21096.910,19642.370,70808.380,0.000
18561.300,19084.260,19660.360,23525.040,9849.000,20770.050,19345.990,69738.900,0.000
18264.260,18780.640,19353.100,23069.800,9701.759,20441.820,19052.980,68673.270,0.000
17966.710,18477.040,19038.810,22558.870,9548.302,20110.490,18747.020,67611.170,0.000
17678.650,18185.660,18733.720,21997.780,9403.310,19788.450,18449.670,66553.900,0.000
17400.740,17905.030,18440.190,21459.590,9269.269,19478.700,18166.710,65502.060,0.000
17128.040,17624.910,18147.340,20941.220,9134.370,19172.000,17882.660,64452.730,0.000
16854.040,17339.630,17852.810,20433.080,8995.317,18859.380,17596.630,63404.460,0.000
16574.580,17045.290,17545.040,19860.220,8843.773,18537.890,17291.730,62357.000,0.000
16295.390,16751.370,17238.980,19227.520,8693.527,18216.400,16987.320,61312.580,0.000
16017.880,16461.160,16940.020,18605.430,8548.119,17898.890,16690.270,60272.160,0.000
15739.380,16170.850,16640.840,17995.250,8400.303,17582.590,16390.690,59234.730,0.000
15459.020,15881.120,16344.440,17398.020,8255.260,17267.430,16096.800,58200.580,0.000
15174.650,15589.690,16040.820,16754.080,8105.798,16952.240,15794.730,57167.570,0.000
14888.660,15301.240,15738.720,16072.940,7957.819,16638.750,15496.390,56135.960,0.000
14607.260,15019.900,15443.980,15424.500,7816.149,16330.260,15207.680,55109.520,0.000
14338.040,14747.400,15157.180,14813.890,7681.320,16029.520,14925.150,54090.940,0.000
14077.300,14479.290,14878.450,14236.070,7553.452,15732.130,14652.930,53078.560,0.000
13811.990,14201.910,14588.290,13619.220,7414.526,15428.200,14367.000,52065.290,0.000
13541.910,13917.260,14294.240,12964.060,7269.896,15118.190,14077.540,51050.340,0.000
13272.640,13632.870,14003.780,12332.900,7128.282,14807.430,13793.300,50038.670,0.000
13004.220,13350.490,13714.070,11720.290,6988.045,14497.980,13508.440,49031.160,0.000
12732.490,13068.760,13427.290,11123.770,6849.503,14189.150,13227.430,48026.620,0.000
12456.880,12786.130,13134.730,10500.810,6705.012,13882.810,12938.410,47025.520,0.000
12181.960,12509.220,12845.610,9861.292,6564.734,13583.680,12657.400,46029.820,0.000
11907.570,12236.480,12559.320,9244.381,6429.655,13288.380,12384.580,45038.330,0.000
11635.150,11963.570,12270.820,8638.481,6293.040,12992.860,12109.780,44050.030,0.000
11367.930,11691.490,11986.950,8054.794,6157.827,12695.350,11839.180,43065.510,0.000
11105.920,11418.320,11701.450,7456.652,6017.876,12394.370,11557.500,42082.460,0.000
10849.100,11148.460,11423.050,6847.946,5883.379,12096.520,11280.900,41101.480,0.000
10594.240,10882.860,11150.450,6259.773,5756.080,11805.080,11013.790,40124.700,0.000
10338.950,10619.070,10876.870,5672.756,5628.409,11517.140,10745.180,39151.750,0.000
10084.920,10359.410,10610.070,5101.192,5505.984,11233.540,10485.850,38183.020,0.000
9832.455,10101.730,10342.530,4517.443,5382.767,10953.720,10223.140,37218.230,0.000
9575.904,9840.981,10072.390,3915.794,5255.819,10671.230,9958.890,36256.080,0.000
9312.541,9573.341,9795.240,3317.821,5121.319,10381.170,9690.097,35295.320,0.000
9051.177,9304.919,9514.118,2710.705,4983.553,10088.520,9415.392,34336.140,0.000
8797.178,9042.888,9241.681,2116.819,4854.660,9798.753,9150.022,33379.910,0.000
8547.096,8782.570,8969.250,1518.704,4725.193,9509.977,8878.346,32425.980,0.000
8300.705,8525.434,8702.215,918.001,4598.701,9225.677,8610.901,31475.440,0.000
8058.235,8273.846,8441.601,329.019,4478.897,8948.998,8354.580,30530.280,0.000
7813.157,8020.390,8177.128,-277.197,4356.218,8670.817,8094.568,29589.050,0.000
7560.243,7760.910,7910.299,-880.578,4229.383,8386.111,7833.347,28650.380,0.000
7303.370,7497.147,7637.536,-1482.260,4095.326,8099.815,7563.750,27714.840,0.000
7050.214,7236.439,7369.219,-2074.778,3965.009,7817.633,7300.671,26783.550,0.000
6800.747,6979.379,7104.350,-2653.811,3838.872,7538.376,7043.083,25854.350,0.000
6551.461,6723.759,6836.502,-3246.972,3709.559,7259.421,6780.823,24925.930,0.000
6303.767,6472.342,6574.583,-3823.229,3584.779,6983.326,6527.342,24001.670,0.000
6059.317,6222.264,6312.754,-4384.877,3460.435,6709.604,6271.285,23081.600,0.000
5817.697,5973.478,6054.723,-4935.399,3339.096,6436.838,6018.625,22165.180,0.000
5574.716,5722.589,5796.280,-5476.736,3216.781,6161.917,5766.483,21252.600,0.000
5331.023,5469.418,5533.990,-6036.312,3089.863,5886.280,5508.905,20342.840,0.000
5091.072,5220.759,5279.078,-6583.515,2967.909,5614.991,5260.644,19435.590,0.000
4851.538,4972.584,5021.473,-7120.045,2842.433,5343.302,5006.037,18530.150,0.000
4609.181,4723.578,4763.062,-7647.958,2716.569,5069.108,4751.715,17628.780,0.000
4362.774,4472.169,4503.354,-8170.437,2591.712,4793.791,4500.737,16731.630,0.000
4113.694,4217.583,4239.149,-8717.982,2464.182,4519.050,4246.718,15835.970,0.000
3866.289,3965.499,3980.307,-9256.502,2341.515,4248.541,4001.306,14943.280,0.000
3625.741,3718.616,3723.986,-9774.127,2220.818,3983.911,3754.491,14055.310,0.000
3395.713,3480.357,3477.093,-10269.480,2106.998,3724.837,3514.357,13172.330,0.000
3168.550,3243.016,3231.868,-10757.240,1991.753,3462.335,3272.871,12292.010,0.000
2935.528,2998.550,2977.126,-11275.620,1864.840,3190.744,3017.235,11411.780,0.000
2698.974,2753.198,2724.503,-11785.120,1739.603,2917.899,2766.978,10533.830,0.000
2463.773,2510.782,2473.324,-12266.340,1618.379,2650.957,2519.173,9660.493,0.000
2228.973,2270.955,2226.208,-12724.290,1502.611,2389.664,2280.004,8791.561,0.000
1992.322,2031.497,1979.333,-13182.300,1387.356,2130.622,2044.753,7924.961,0.000
1757.099,1794.141,1730.256,-13674.760,1269.200,1873.720,1804.842,7060.716,0.000
1525.280,1560.030,1486.763,-14158.440,1154.256,1618.484,1570.975,6201.715,0.000
1296.738,1323.981,1240.892,-14619.600,1034.994,1362.096,1330.386,5347.547,0.000
1073.103,1089.041,997.764,-15066.350,916.148,1105.582,1091.007,4496.971,0.000
851.216,855.329,755.501,-15517.390,797.960,847.595,851.938,3648.261,0.000
629.625,621.292,510.910,-16005.550,678.283,588.955,607.578,2799.998,0.000
409.991,391.097,274.460,-16491.800,566.556,334.588,374.439,1953.662,0.000
187.119,159.208,34.409,-16965.200,451.822,80.052,136.952,1108.229,0.000
-42.505,-76.914,-208.779,-17427.080,332.986,-178.119,-102.717,263.977,0.000
-275.437,-313.794,-451.422,-17881.190,214.506,-435.526,-340.106,-575.773,0.000
-506.532,-548.332,-695.786,-18359.330,95.937,-688.471,-578.679,-1409.746,0.000
-734.072,-778.863,-936.480,-18833.360,-18.651,-938.537,-808.089,-2238.278,0.000
-958.215,-1008.081,-1178.746,-19289.800,-135.943,-1188.564,-1041.053,-3062.844,0.000
-1178.336,-1235.120,-1416.284,-19729.440,-250.845,-1438.116,-1271.631,-3884.839,0.000
-1396.445,-1462.467,-1651.258,-20166.350,-363.741,-1688.653,-1501.546,-4705.594,0.000
-1611.718,-1688.334,-1886.002,-20630.740,-475.992,-1936.351,-1734.701,-5524.637,0.000
-1824.697,-1908.624,-2111.547,-21085.540,-579.298,-2177.259,-1955.364,-6339.562,0.000
-2039.930,-2129.107,-2338.281,-21514.880,-684.168,-2417.882,-2178.208,-7150.888,0.000
-2257.048,-2349.526,-2564.522,-21919.940,-790.821,-2660.608,-2400.105,-7959.379,0.000
-2475.591,-2571.141,-2792.384,-22316.490,-899.925,-2904.014,-2621.844,-8765.261,0.000
-2694.712,-2794.793,-3025.628,-22738.100,-1013.700,-3146.800,-2849.285,-9568.442,0.000
-2912.430,-3016.124,-3253.962,-23149.170,-1123.185,-3387.407,-3067.425,-10367.330,0.000
-3130.741,-3239.684,-3485.657,-23537.510,-1236.604,-3631.145,-3290.330,-11162.920,0.000
-3349.781,-3465.360,-3718.781,-23909.030,-1352.085,-3878.609,-3514.634,-11956.410,0.000
-3566.404,-3689.053,-3950.096,-24276.830,-1465.357,-4123.959,-3737.014,-12747.900,0.000
-3777.359,-3908.104,-4178.531,-24670.210,-1576.281,-4364.413,-3961.628,-13536.780,0.000
-3982.284,-4121.119,-4395.972,-25056.430,-1678.016,-4600.182,-4176.120,-14321.920,0.000
-4185.914,-4334.882,-4614.564,-25427.380,-1780.866,-4835.247,-4394.614,-15105.000,0.000
-4392.303,-4550.091,-4834.900,-25787.420,-1885.632,-5071.070,-4613.047,-15885.860,0.000
-4602.641,-4765.723,-5056.853,-26146.250,-1991.405,-5306.316,-4828.899,-16662.830,0.000
-4814.716,-4982.246,-5282.461,-26533.670,-2100.252,-5539.240,-5046.780,-17436.470,0.000
-5024.594,-5196.135,-5501.895,-26919.000,-2204.514,-5769.652,-5254.911,-18206.990,0.000
-5231.321,-5408.430,-5720.891,-27292.460,-2309.158,-5998.892,-5465.000,-18974.130,0.000
-5437.959,-5620.231,-5939.626,-27658.700,-2413.456,-6226.993,-5672.504,-19737.690,0.000
-5647.640,-5834.563,-6162.527,-28027.680,-2520.734,-6457.746,-5881.396,-20499.170,0.000
-5856.964,-6050.840,-6391.117,-28425.990,-2633.519,-6692.199,-6100.223,-21259.220,0.000
-6063.147,-6264.395,-6613.720,-28824.630,-2741.775,-6925.935,-6313.411,-22016.700,0.000
-6266.885,-6474.887,-6833.484,-29212.630,-2847.766,-7155.755,-6527.424,-22771.980,0.000
-6467.321,-6679.294,-7044.975,-29586.370,-2947.134,-7380.242,-6735.156,-23524.170,0.000
-6665.492,-6880.339,-7251.526,-29953.040,-3042.451,-7602.316,-6938.906,-24273.190,0.000
-6863.458,-7083.309,-7461.016,-30340.190,-3141.652,-7826.209,-7149.768,-25020.200,0.000
-7063.570,-7288.492,-7668.659,-30720.200,-3241.475,-8053.462,-7358.118,-25764.560,0.000
-7265.265,-7495.691,-7880.642,-31089.870,-3345.993,-8281.533,-7571.247,-26506.290,0.000
-7463.292,-7699.346,-8089.976,-31447.950,-3447.313,-8504.303,-7777.437,-27243.760,0.000
-7659.240,-7901.534,-8298.937,-31796.790,-3546.857,-8724.144,-7979.185,-27976.380,0.000
-7856.941,-8107.014,-8514.292,-32164.860,-3653.095,-8947.729,-8189.991,-28706.480,0.000
-8053.270,-8311.049,-8724.062,-32525.810,-3756.698,-9173.584,-8395.554,-29434.200,0.000
-8246.878,-8513.469,-8932.614,-32878.110,-3859.650,-9398.955,-8602.722,-30159.870,0.000
-8438.196,-8713.871,-9137.581,-33224.450,-3958.908,-9620.895,-8804.888,-30883.090,0.000
-8627.536,-8912.294,-9339.116,-33562.930,-4054.842,-9838.149,-9001.983,-31603.030,0.000
-8817.378,-9110.383,-9543.571,-33915.480,-4152.938,-10053.020,-9202.520,-32320.360,0.000
-9009.353,-9306.592,-9745.972,-34258.490,-4246.835,-10265.420,-9393.665,-33034.010,0.000
-9202.527,-9502.324,-9951.665,-34594.130,-4341.457,-10475.350,-9586.271,-33744.410,0.000
-9395.056,-9696.473,-10155.100,-34925.380,-4434.679,-10684.180,-9777.062,-34452.960,0.000
-9586.831,-9889.363,-10355.930,-35251.460,-4526.990,-10893.500,-9966.693,-35159.430,0.000
-9777.347,-10081.850,-10557.660,-35595.550,-4622.277,-11103.540,-10162.180,-35863.410,0.000
-9965.016,-10271.890,-10752.490,-35935.230,-4713.590,-11312.560,-10350.360,-36564.280,0.000
-10150.260,-10462.330,-10948.990,-36272.700,-4806.770,-11520.030,-10542.060,-37262.250,0.000
-10336.180,-10654.310,-11147.830,-36609.900,-4901.793,-11727.940,-10734.540,-37957.200,0.000
-10524.040,-10847.810,-11349.100,-36942.690,-4999.063,-11938.410,-10927.730,-38649.210,0.000
-10710.890,-11042.070,-11552.800,-37289.900,-5098.999,-12149.380,-11125.970,-39340.020,0.000
-10897.890,-11237.110,-11752.490,-37630.810,-5195.287,-12360.230,-11317.390,-40029.660,0.000
-11085.570,-11432.580,-11953.610,-37968.560,-5293.491,-12571.030,-11512.260,-40716.030,0.000
-11268.860,-11620.070,-12146.270,-38300.090,-5386.142,-12776.710,-11701.170,-41397.330,0.000
-11448.360,-11801.360,-12332.280,-38621.140,-5473.372,-12978.800,-11885.760,-42075.250,0.000
-11627.650,-11984.820,-12522.350,-38955.500,-5564.708,-13182.780,-12077.910,-42752.380,0.000
-11808.010,-12170.050,-12711.430,-39283.360,-5655.986,-13387.990,-12264.290,-43427.130,0.000
-11987.810,-12354.990,-12904.070,-39608.520,-5749.952,-13591.730,-12453.260,-44097.350,0.000
-12168.520,-12540.530,-13098.370,-39934.510,-5844.733,-13795.110,-12641.530,-44764.540,0.000
-12355.390,-12732.120,-13298.470,-40258.700,-5943.034,-14001.760,-12830.520,-45431.520,0.000
-12542.690,-12924.410,-13501.680,-40593.820,-6042.526,-14207.430,-13022.530,-46097.440,0.000
-12725.670,-13110.780,-13694.530,-40915.020,-6132.988,-14408.950,-13203.570,-46759.910,0.000
-12908.130,-13298.470,-13887.200,-41235.800,-6225.435,-14611.910,-13390.060,-47420.180,0.000
-13087.080,-13484.030,-14074.640,-41557.030,-6316.107,-14813.890,-13574.950,-48077.830,0.000
-13257.940,-13660.320,-14252.250,-41861.750,-6398.260,-15007.400,-13749.800,-48730.130,0.000
-13423.920,-13830.740,-14428.660,-42169.250,-6478.365,-15193.610,-13923.260,-49377.980,0.000
-13592.070,-14001.130,-14604.910,-42467.330,-6557.827,-15378.890,-14090.720,-50023.410,0.000
-13765.760,-14177.650,-14790.380,-42766.180,-6645.589,-15568.520,-14267.490,-50667.490,0.000
-13943.040,-14358.910,-14979.430,-43064.980,-6737.506,-15763.150,-14447.400,-51310.120,0.000
-14121.060,-14541.590,-15168.310,-43353.180,-6829.498,-15960.310,-14625.690,-51950.680,0.000
-14297.690,-14724.100,-15359.080,-43652.980,-6924.011,-16158.600,-14810.060,-52589.180,0.000
-14472.910,-14905.430,-15545.280,-43949.130,-7016.302,-16358.460,-14992.160,-53225.370,0.000
-14643.760,-15084.230,-15730.370,-44245.460,-7109.031,-16556.050,-15178.830,-53858.780,0.000
-14805.470,-15253.900,-15904.650,-44537.290,-7193.167,-16745.350,-15356.620,-54488.090,0.000
-14962.530,-15418.380,-16071.260,-44817.740,-7270.350,-16930.240,-15526.750,-55113.630,0.000
-15123.630,-15586.110,-16244.820,-45112.910,-7352.639,-17117.220,-15703.780,-55737.370,0.000
-15292.090,-15757.060,-16422.160,-45405.270,-7436.152,-17305.830,-15875.390,-56358.980,0.000
-15463.870,-15930.990,-16605.390,-45700.980,-7522.962,-17493.290,-16048.550,-56978.470,0.000
-15635.700,-16106.010,-16787.870,-46002.700,-7609.629,-17680.270,-16219.340,-57596.310,0.000
-15809.240,-16282.690,-16970.360,-46299.890,-7697.643,-17869.950,-16391.100,-58211.590,0.000
-15980.080,-16457.070,-17153.090,-46604.750,-7786.923,-18057.250,-16568.080,-58823.240,0.000
-16145.240,-16624.660,-17325.790,-46894.490,-7868.438,-18238.960,-16734.770,-59430.930,0.000
-16309.790,-16793.540,-17500.850,-47184.050,-7954.090,-18424.330,-16908.310,-60036.780,0.000
-16473.110,-16963.790,-17676.080,-47477.950,-8042.092,-18614.470,-17083.630,-60641.290,0.000
-16631.090,-17130.060,-17845.620,-47759.280,-8124.976,-18800.620,-17252.140,-61242.850,0.000
-16784.750,-17291.800,-18012.880,-48046.740,-8204.791,-18979.030,-17420.500,-61841.820,0.000
-16939.670,-17450.360,-18175.910,-48327.500,-8279.505,-19152.750,-17579.780,-62438.870,0.000
-17099.570,-17612.480,-18346.780,-48612.210,-8359.671,-19328.240,-17745.120,-63033.630,0.000
-17261.230,-17777.890,-18520.530,-48900.820,-8442.080,-19506.250,-17911.420,-63624.660,0.000
-17423.090,-17943.890,-18692.790,-49182.820,-8524.074,-19685.070,-18075.000,-64213.000,0.000
-17586.850,-18111.860,-18869.320,-49481.950,-8612.761,-19866.790,-18246.890,-64800.300,0.000
-17749.070,-18277.600,-19040.520,-49777.480,-8699.346,-20048.060,-18412.850,-65384.750,0.000
-17904.250,-18437.040,-19206.320,-50071.590,-8781.250,-20222.890,-18576.650,-65966.180,0.000
-18054.720,-18592.230,-19365.800,-50369.330,-8857.440,-20394.750,-18736.390,-66546.020,0.000
-18206.040,-18749.540,-19525.040,-50662.270,-8934.008,-20569.890,-18897.180,-67124.420,0.000
-18356.700,-18907.730,-19687.630,-50964.730,-9014.123,-20745.140,-19064.770,-67700.450,0.000
-18505.870,-19062.390,-19844.720,-51255.010,-9088.146,-20916.010,-19222.040,-68272.030,0.000
-18656.720,-19217.940,-20006.660,-51545.130,-9163.920,-21084.580,-19380.620,-68840.340,0.000
-18809.150,-19374.870,-20171.820,-51841.610,-9241.358,-21253.330,-19537.850,-69406.660,0.000
-18963.990,-19534.450,-20338.390,-52132.070,-9320.361,-21425.670,-19693.790,-69970.620,0.000
-19120.840,-19696.880,-20508.530,-52432.700,-9404.229,-21600.950,-19856.550,-70533.020,0.000
-19275.510,-19855.230,-20670.240,-52719.920,-9482.542,-21773.760,-20010.590,-71093.160,0.000
-19427.550,-20010.170,-20829.990,-53002.440,-9560.540,-21944.410,-20167.850,-71650.890,0.000
-19577.740,-20162.330,-20986.940,-53287.640,-9637.405,-22112.870,-20325.910,-72206.360,0.000
-19725.410,-20311.710,-21140.260,-53563.680,-9711.011,-22277.220,-20480.060,-72758.890,0.000
-19870.070,-20460.050,-21295.340,-53851.650,-9785.521,-22439.220,-20636.300,-73308.870,0.000
-20012.540,-20606.920,-21446.160,-54135.530,-9855.738,-22600.510,-20783.610,-73856.450,0.000
-20156.170,-20756.920,-21601.680,-54422.950,-9929.864,-22763.030,-20936.750,-74403.090,0.000
-20301.600,-20909.480,-21759.320,-54713.440,-10006.170,-22926.900,-21091.340,-74948.090,0.000
-20445.560,-21060.120,-21913.810,-54989.220,-10079.620,-23088.680,-21239.600,-75488.570,0.000
-20587.190,-21208.760,-22068.920,-55272.880,-10154.190,-23249.130,-21391.220,-76026.050,0.000
-20729.080,-21357.220,-22220.950,-55552.560,-10227.490,-23413.900,-21541.290,-76562.610,0.000
-20873.090,-21507.460,-22376.820,-55833.050,-10305.760,-23583.230,-21699.690,-77097.270,0.000
-21018.990,-21655.630,-22531.410,-56113.630,-10383.150,-23748.930,-21853.870,-77628.370,0.000
-21165.950,-21801.050,-22682.790,-56386.880,-10455.000,-23906.810,-21997.530,-78156.540,0.000
-21312.510,-21946.370,-22835.990,-56679.580,-10526.520,-24060.920,-22142.870,-78684.000,0.000
-21457.150,-22090.960,-22984.080,-56970.890,-10593.790,-24215.380,-22281.920,-79209.790,0.000
-21598.960,-22236.350,-23133.920,-57260.560,-10663.340,-24372.020,-22426.280,-79732.860,0.000
-21738.090,-22380.930,-23283.410,-57550.100,-10734.020,-24529.980,-22571.330,-80253.590,0.000
-21876.590,-22525.540,-23432.830,-57832.190,-10805.830,-24689.090,-22715.260,-80771.810,0.000
-22013.240,-22671.030,-23585.490,-58130.800,-10882.130,-24848.260,-22865.930,-81287.090,0.000
-22146.090,-22813.460,-23731.180,-58423.560,-10954.270,-25004.850,-23008.940,-81798.700,0.000
-22279.410,-22955.570,-23877.840,-58713.800,-11028.590,-25161.520,-23156.360,-82308.660,0.000
-22412.450,-23093.760,-24020.630,-59001.830,-11099.390,-25315.730,-23301.170,-82817.020,0.000
-22542.560,-23225.140,-24156.740,-59275.650,-11161.830,-25463.700,-23436.840,-83321.660,0.000
-22675.530,-23357.710,-24298.540,-59562.140,-11227.830,-25611.210,-23577.510,-83823.600,0.000
-22814.680,-23495.070,-24442.600,-59842.710,-11296.680,-25762.440,-23716.040,-84323.070,0.000
-22954.990,-23635.520,-24590.230,-60120.880,-11369.400,-25914.550,-23859.900,-84820.570,0.000
-23091.200,-23773.290,-24733.970,-60400.520,-11439.240,-26064.260,-24000.930,-85317.410,0.000
-23225.000,-23910.650,-24874.520,-60671.430,-11507.330,-26214.950,-24138.540,-85813.330,0.000
-23357.660,-24051.220,-25018.730,-60953.880,-11579.930,-26367.350,-24281.790,-86306.190,0.000
-23487.110,-24189.610,-25156.910,-61225.700,-11646.910,-26516.520,-24414.910,-86794.270,0.000
-23613.380,-24323.920,-25293.770,-61494.890,-11711.230,-26660.890,-24547.470,-87279.970,0.000
-23740.220,-24455.250,-25429.930,-61770.500,-11775.090,-26803.800,-24679.620,-87764.690,0.000
-23870.460,-24587.200,-25567.440,-62041.410,-11841.430,-26949.710,-24812.870,-88247.290,0.000
-23999.500,-24718.210,-25707.740,-62325.890,-11911.110,-27094.690,-24952.170,-88727.370,0.000
-24127.000,-24846.970,-25843.920,-62606.400,-11976.750,-27236.520,-25083.540,-89205.100,0.000
-24255.970,-24978.830,-25984.810,-62889.270,-12045.290,-27378.590,-25217.960,-89681.050,0.000
-24385.380,-25112.220,-26125.520,-63174.460,-12113.440,-27520.130,-25349.320,-90154.520,0.000
-24516.270,-25246.770,-26264.700,-63451.220,-12181.120,-27662.230,-25477.570,-90625.250,0.000
-24645.930,-25381.110,-26405.670,-63738.400,-12251.920,-27805.500,-25612.940,-91093.880,0.000
-24771.610,-25511.300,-26539.390,-64009.140,-12316.860,-27947.750,-25741.310,-91559.230,0.000
-24894.580,-25639.710,-26672.970,-64269.230,-12381.400,-28088.380,-25872.710,-92021.210,0.000
-25015.690,-25765.890,-26804.160,-64527.070,-12444.600,-28227.890,-26003.210,-92481.200,0.000
-25141.060,-25894.960,-26937.200,-64778.070,-12509.290,-28371.270,-26133.070,-92941.550,0.000
-25271.180,-26028.600,-27077.590,-65043.520,-12579.420,-28517.770,-26270.090,-93403.080,0.000
-25396.370,-26155.980,-27208.290,-65292.050,-12641.000,-28657.910,-26394.810,-93862.290,0.000
-25516.960,-26280.210,-27335.690,-65528.570,-12701.560,-28794.370,-26520.490,-94318.160,0.000
-25640.270,-26408.360,-27465.210,-65763.700,-12765.880,-28934.200,-26649.490,-94770.880,0.000
-25764.160,-26535.940,-27593.860,-65984.840,-12828.180,-29070.680,-26772.690,-95219.410,0.000
-25883.520,-26657.650,-27721.530,-66210.010,-12887.790,-29198.540,-26893.560,-95664.310,0.000
-26004.170,-26778.090,-27846.280,-66424.580,-12945.280,-29328.480,-27010.220,-96106.690,0.000
-26128.810,-26901.850,-27976.740,-66642.810,-13008.970,-29464.620,-27137.420,-96547.800,0.000
-26248.100,-27020.270,-28101.420,-66863.180,-13068.730,-29596.870,-27260.770,-96986.770,0.000
-26361.590,-27135.950,-28219.670,-67067.710,-13124.180,-29727.250,-27378.020,-97423.530,0.000
-26476.730,-27259.330,-28345.090,-67280.900,-13187.240,-29863.360,-27505.240,-97859.840,0.000
-26594.760,-27387.110,-28470.630,-67485.460,-13249.850,-30001.280,-27627.000,-98293.970,0.000
-26711.820,-27511.850,-28596.290,-67693.690,-13310.710,-30132.890,-27747.510,-98724.920,0.000
-26826.210,-27627.410,-28715.970,-67910.880,-13365.860,-30254.980,-27861.450,-99153.130,0.000
-26940.120,-27738.490,-28831.980,-68114.710,-13417.280,-30373.480,-27969.270,-99578.490,0.000
-27053.540,-27851.650,-28953.340,-68321.740,-13473.000,-30495.670,-28085.120,-100001.500,0.000
-27167.620,-27965.290,-29074.130,-68520.000,-13529.730,-30623.140,-28200.200,-100423.200,0.000
-27284.040,-28082.070,-29200.230,-68724.230,-13593.470,-30753.980,-28323.100,-100844.200,0.000
-27399.280,-28201.600,-29324.630,-68933.030,-13656.880,-30884.160,-28444.430,-101262.700,0.000
-27510.450,-28321.150,-29442.220,-69123.530,-13714.130,-31012.400,-28559.220,-101678.400,0.000
-27617.930,-28437.550,-29558.750,-69316.220,-13771.300,-31138.650,-28678.370,-102092.600,0.000
-27725.740,-28549.430,-29670.940,-69498.050,-13825.650,-31263.610,-28791.640,-102504.400,0.000
-27835.060,-28660.210,-29786.310,-69684.440,-13881.360,-31386.750,-28907.170,-102913.700,0.000
-27943.720,-28769.060,-29900.890,-69879.760,-13934.490,-31506.860,-29019.310,-103321.300,0.000
-28054.240,-28880.510,-30015.890,-70062.910,-13988.310,-31629.500,-29130.200,-103727.200,0.000
-28164.020,-28993.160,-30133.200,-70248.100,-14045.320,-31751.200,-29245.430,-104131.100,0.000
-28268.180,-29098.670,-30239.230,-70414.300,-14091.710,-31863.830,-29344.920,-104531.700,0.000
-28371.230,-29204.580,-30346.230,-70578.660,-14139.440,-31976.860,-29447.890,-104930.200,0.000
-28478.410,-29315.850,-30459.070,-70751.200,-14194.830,-32098.510,-29559.600,-105327.400,0.000
-28589.870,-29429.330,-30575.080,-70908.780,-14252.650,-32223.050,-29671.930,-105722.100,0.000
-28702.670,-29542.560,-30695.670,-71069.550,-14312.680,-32344.950,-29788.330,-106114.700,0.000
-28813.570,-29651.930,-30810.550,-71221.950,-14367.220,-32463.390,-29895.040,-106505.300,0.000
-28921.110,-29759.450,-30925.460,-71379.520,-14421.890,-32579.810,-30003.300,-106893.300,0.000
-29024.570,-29866.430,-31037.880,-71546.260,-14475.660,-32696.420,-30111.480,-107278.500,0.000
-29125.160,-29971.910,-31145.260,-71702.630,-14526.700,-32813.230,-30216.420,-107661.200,0.000
-29225.620,-30075.980,-31254.340,-71869.770,-14580.240,-32927.900,-30326.860,-108043.400,0.000
-29328.170,-30180.050,-31361.010,-72032.880,-14631.950,-33042.110,-30431.830,-108424.800,0.000
-29431.130,-30285.730,-31470.770,-72200.240,-14686.150,-33157.330,-30540.480,-108804.500,0.000
-29532.590,-30390.720,-31578.980,-72375.110,-14739.110,-33272.500,-30646.940,-109181.600,0.000
-29635.580,-30497.680,-31686.230,-72537.130,-14791.530,-33391.130,-30750.950,-109556.200,0.000
-29738.810,-30604.870,-31796.840,-72699.830,-14847.880,-33511.280,-30862.720,-109929.300,0.000
-29838.210,-30705.950,-31899.540,-72844.900,-14897.910,-33625.500,-30965.040,-110299.600,0.000
-29934.080,-30804.210,-32001.880,-72990.070,-14946.110,-33732.370,-31065.480,-110667.600,0.000
-30028.520,-30901.460,-32103.830,-73147.350,-14992.270,-33834.830,-31162.230,-111034.000,0.000
-30122.820,-30999.270,-32203.050,-73293.060,-15036.570,-33938.360,-31255.520,-111397.700,0.000
-30215.470,-31098.560,-32304.500,-73439.430,-15085.440,-34045.560,-31358.310,-111758.500,0.000
-30306.800,-31196.190,-32402.660,-73573.800,-15132.530,-34154.510,-31457.140,-112117.200,0.000
-30400.720,-31295.470,-32506.230,-73714.570,-15182.890,-34264.140,-31558.590,-112475.400,0.000
-30498.230,-31397.480,-32612.550,-73870.340,-15234.770,-34373.960,-31658.870,-112832.700,0.000
-30596.630,-31498.990,-32716.630,-74015.940,-15284.360,-34483.170,-31755.090,-113187.900,0.000
-30693.020,-31598.180,-32821.090,-74162.580,-15334.580,-34589.700,-31856.140,-113540.800,0.000
-30789.340,-31696.620,-32920.180,-74298.250,-15381.420,-34695.630,-31951.790,-113890.800,0.000
-30888.900,-31799.860,-33024.310,-74444.580,-15434.440,-34806.870,-32056.550,-114239.700,0.000
-30987.630,-31901.820,-33128.710,-74609.510,-15488.860,-34918.720,-32162.980,-114588.100,0.000
-31079.230,-31992.770,-33224.000,-74760.180,-15533.990,-35020.980,-32256.740,-114933.200,0.000
-31165.270,-32074.760,-33315.890,-74907.290,-15574.440,-35113.820,-32347.060,-115274.900,0.000
-31254.190,-32159.000,-33406.120,-75046.190,-15613.470,-35208.040,-32432.660,-115614.500,0.000
-31347.090,-32254.250,-33504.420,-75194.580,-15660.110,-35309.620,-32528.110,-115953.300,0.000
-31439.040,-32354.100,-33604.410,-75359.270,-15709.290,-35414.510,-32626.230,-116291.800,0.000
-31530.030,-32452.380,-33701.130,-75518.420,-15756.510,-35519.750,-32720.140,-116629.100,0.000
-31618.820,-32547.380,-33798.290,-75681.890,-15804.340,-35622.250,-32816.870,-116963.200,0.000
-31705.400,-32638.650,-33889.370,-75833.730,-15846.790,-35721.150,-32904.940,-117294.000,0.000
-31792.040,-32729.800,-33982.010,-75985.660,-15890.660,-35820.260,-32997.070,-117623.000,0.000
-31878.640,-32817.730,-34073.960,-76146.540,-15934.900,-35919.420,-33090.270,-117949.800,0.000
-31967.720,-32904.460,-34166.110,-76301.620,-15980.400,-36019.100,-33181.700,-118276.100,0.000
-32059.100,-32995.070,-34265.060,-76463.380,-16032.330,-36120.440,-33280.740,-118601.900,0.000
-32147.830,-33084.750,-34358.800,-76611.160,-16078.690,-36219.650,-33369.880,-118923.300,0.000
-32233.940,-33173.210,-34452.350,-76756.580,-16122.890,-36314.710,-33456.550,-119241.000,0.000
-32322.220,-33263.330,-34547.370,-76910.790,-16168.170,-36409.130,-33543.050,-119558.500,0.000
-32412.690,-33355.150,-34640.850,-77055.660,-16213.490,-36506.780,-33629.070,-119875.600,0.000
-32498.670,-33443.900,-34733.320,-77204.850,-16259.120,-36603.600,-33720.580,-120190.800,0.000
-32578.830,-33527.510,-34817.560,-77342.520,-16298.130,-36696.070,-33803.780,-120503.100,0.000
-32657.040,-33610.950,-34902.610,-77477.750,-16338.590,-36787.210,-33890.230,-120813.700,0.000
-32734.480,-33690.870,-34986.730,-77619.300,-16379.150,-36876.520,-33975.840,-121122.200,0.000
-32814.910,-33771.630,-35071.180,-77754.300,-16420.130,-36967.370,-34058.700,-121427.700,0.000
-32900.290,-33860.560,-35164.270,-77899.500,-16468.780,-37062.830,-34150.740,-121732.200,0.000
-32987.040,-33950.010,-35255.050,-78035.910,-16514.480,-37158.190,-34236.220,-122035.800,0.000
-33070.550,-34034.430,-35344.630,-78168.380,-16557.430,-37250.340,-34321.410,-122337.200,0.000
-33147.910,-34112.430,-35428.900,-78303.710,-16595.560,-37338.070,-34402.760,-122635.700,0.000
-33222.730,-34189.410,-35508.710,-78429.300,-16631.260,-37424.500,-34479.460,-122932.400,0.000
-33298.040,-34271.140,-35593.060,-78564.250,-16674.130,-37513.380,-34565.310,-123228.700,0.000
-33372.360,-34353.730,-35673.740,-78692.260,-16716.300,-37604.050,-34647.390,-123522.200,0.000
-33445.020,-34434.180,-35754.620,-78818.040,-16758.480,-37693.880,-34731.630,-123813.300,0.000
-33518.840,-34512.160,-35835.030,-78949.650,-16799.120,-37781.160,-34814.140,-124104.100,0.000
-33598.090,-34591.480,-35915.750,-79075.120,-16838.540,-37868.130,-34892.270,-124393.100,0.000
-33681.330,-34674.510,-36003.240,-79213.570,-16882.260,-37956.370,-34977.340,-124679.100,0.000
-33764.800,-34757.530,-36088.970,-79351.170,-16923.520,-38045.210,-35057.450,-124963.900,0.000
-33844.460,-34837.240,-36174.050,-79486.000,-16964.470,-38131.680,-35138.350,-125247.800,0.000
-33918.760,-34912.890,-36254.860,-79617.870,-17002.850,-38214.640,-35217.160,-125528.900,0.000
-33992.230,-34990.500,-36333.130,-79742.320,-17040.040,-38298.820,-35294.150,-125807.700,0.000
-34066.160,-35071.230,-36415.250,-79884.010,-17081.970,-38385.580,-35378.730,-126086.200,0.000
-34140.210,-35149.660,-36492.620,-80021.550,-17121.010,-38471.770,-35455.820,-126363.600,0.000
-34215.140,-35226.040,-36570.560,-80152.060,-17159.800,-38554.130,-35532.510,-126638.500,0.000
-34288.140,-35297.490,-36645.720,-80278.630,-17194.010,-38629.730,-35603.890,-126910.100,0.000
-34360.450,-35366.360,-36718.790,-80395.120,-17224.570,-38703.420,-35669.290,-127179.400,0.000
-34435.210,-35439.820,-36800.290,-80528.730,-17262.700,-38782.460,-35745.280,-127448.100,0.000
-34511.630,-35517.290,-36882.210,-80662.080,-17303.630,-38868.070,-35821.300,-127715.000,0.000
-34589.120,-35599.680,-36968.280,-80794.740,-17351.470,-38959.090,-35905.360,-127980.100,0.000
-34662.220,-35679.750,-37050.280,-80927.050,-17397.530,-39046.350,-35987.700,-128244.000,0.000
-34728.760,-35752.540,-37121.720,-81045.360,-17433.390,-39124.950,-36058.900,-128505.700,0.000
-34795.800,-35825.030,-37194.250,-81177.450,-17469.900,-39202.780,-36135.050,-128766.800,0.000
-34866.430,-35898.110,-37264.910,-81309.790,-17505.900,-39283.390,-36208.050,-129027.300,0.000
-34937.680,-35970.720,-37338.630,-81439.820,-17544.350,-39363.540,-36283.820,-129285.700,0.000
-35005.340,-36040.220,-37411.220,-81567.630,-17579.940,-39439.140,-36355.460,-129540.100,0.000
-35069.870,-36106.930,-37480.360,-81682.060,-17609.910,-39510.430,-36418.780,-129790.000,0.000
-35134.250,-36173.000,-37552.940,-81810.990,-17641.490,-39579.360,-36485.980,-130038.700,0.000
-35199.580,-36238.530,-37621.550,-81941.650,-17670.270,-39649.040,-36547.490,-130288.100,0.000
-35267.480,-36309.660,-37694.180,-82071.710,-17705.250,-39726.150,-36617.730,-130537.800,0.000
-35337.600,-36384.790,-37769.260,-82200.570,-17746.240,-39810.130,-36694.430,-130786.500,0.000
-35406.680,-36458.050,-37840.810,-82316.040,-17785.750,-39893.980,-36767.720,-131032.800,0.000
-35471.960,-36528.040,-37913.300,-82444.470,-17824.940,-39972.620,-36843.640,-131276.800,0.000
-35533.900,-36592.020,-37979.250,-82569.520,-17856.310,-40043.790,-36907.540,-131517.600,0.000
-35595.430,-36653.730,-38044.620,-82679.560,-17886.840,-40111.280,-36971.370,-131756.800,0.000
-35658.330,-36716.730,-38110.160,-82773.840,-17918.830,-40180.050,-37037.730,-131994.500,0.000
-35723.310,-36782.340,-38176.580,-82861.090,-17950.550,-40250.660,-37101.740,-132229.500,0.000
-35788.300,-36848.920,-38248.710,-82978.890,-17986.070,-40320.220,-37171.290,-132463.000,0.000
-35850.860,-36911.020,-38313.690,-83095.140,-18016.630,-40387.520,-37232.210,-132694.900,0.000
-35912.090,-36971.820,-38375.650,-83190.630,-18045.770,-40455.360,-37293.430,-132925.200,0.000
-35972.790,-37031.680,-38436.890,-83275.600,-18073.620,-40522.980,-37354.680,-133154.300,0.000
-36032.890,-37089.810,-38497.510,-83356.750,-18099.840,-40589.430,-37412.360,-133381.900,0.000
-36091.100,-37148.910,-38562.320,-83462.210,-18130.730,-40655.590,-37476.860,-133608.000,0.000
-36148.960,-37209.250,-38623.820,-83567.660,-18160.190,-40721.300,-37535.880,-133831.800,0.000
-36209.480,-37273.760,-38688.920,-83664.910,-18192.900,-40788.130,-37597.930,-134054.000,0.000
-36271.780,-37340.220,-38756.130,-83760.400,-18227.530,-40856.140,-37660.770,-134275.300,0.000
-36336.410,-37407.360,-38823.700,-83851.530,-18262.030,-40925.410,-37721.010,-134496.200,0.000
-36398.890,-37471.640,-38892.500,-83956.960,-18297.180,-40992.800,-37785.960,-134716.000,0.000
-36455.400,-37528.160,-38950.900,-84049.620,-18323.070,-41055.660,-37840.640,-134931.300,0.000
-36512.060,-37586.050,-39011.200,-84136.280,-18350.250,-41119.200,-37898.880,-135143.600,0.000
-36569.310,-37646.070,-39072.960,-84228.300,-18380.570,-41184.510,-37959.880,-135355.100,0.000
-36624.440,-37703.350,-39128.680,-84306.820,-18408.190,-41248.440,-38015.070,-135565.200,0.000
-36678.650,-37759.640,-39186.160,-84390.670,-18437.620,-41310.230,-38075.160,-135774.500,0.000
-36735.140,-37816.640,-39244.430,-84471.090,-18466.320,-41372.520,-38131.790,-135983.100,0.000
-36792.930,-37875.340,-39308.200,-84555.940,-18497.930,-41435.200,-38191.820,-136190.800,0.000
-36847.820,-37932.430,-39370.450,-84646.550,-18527.650,-41496.390,-38250.060,-136396.200,0.000
-36905.450,-37992.690,-39432.490,-84724.570,-18558.400,-41562.720,-38307.870,-136600.200,0.000
-36966.800,-38056.720,-39500.680,-84808.710,-18596.040,-41632.800,-38375.290,-136803.600,0.000
-37024.390,-38114.430,-39560.360,-84883.480,-18626.320,-41696.800,-38431.540,-137004.200,0.000
-37078.020,-38167.660,-39617.090,-84957.260,-18652.800,-41755.030,-38485.200,-137202.400,0.000
-37129.030,-38218.510,-39670.700,-85035.520,-18676.830,-41810.560,-38537.370,-137398.400,0.000
-37178.380,-38268.770,-39719.670,-85096.910,-18698.460,-41866.360,-38585.720,-137591.900,0.000
-37228.610,-38322.300,-39774.360,-85164.130,-18725.980,-41924.720,-38642.840,-137784.700,0.000
-37281.880,-38377.160,-39828.980,-85229.150,-18753.100,-41984.690,-38695.560,-137977.500,0.000
-37339.180,-38435.680,-39888.670,-85296.860,-18783.960,-42047.040,-38752.580,-138169.900,0.000
-37396.500,-38493.790,-39948.670,-85369.760,-18815.110,-42108.840,-38809.860,-138360.500,0.000
-37449.180,-38545.450,-40001.340,-85427.620,-18840.030,-42166.040,-38858.850,-138548.400,0.000
-37495.480,-38592.600,-40051.980,-85490.640,-18863.990,-42218.640,-38910.750,-138734.700,0.000
-37536.630,-38636.980,-40095.650,-85546.630,-18882.820,-42269.000,-38955.700,-138918.900,0.000
-37577.450,-38683.710,-40141.710,-85601.230,-18904.440,-42321.980,-39005.370,-139101.100,0.000
-37622.470,-38733.890,-40191.230,-85663.580,-18930.480,-42378.130,-39058.710,-139282.100,0.000
-37673.190,-38786.550,-40241.820,-85718.160,-18957.310,-42434.960,-39108.500,-139462.000,0.000
-37727.230,-38841.640,-40299.610,-85785.070,-18988.750,-42492.280,-39164.910,-139640.800,0.000
-37781.860,-38895.070,-40355.200,-85848.560,-19016.960,-42548.880,-39214.260,-139817.300,0.000
-37836.320,-38947.660,-40412.250,-85909.700,-19045.710,-42604.010,-39264.340,-139991.300,0.000
-37887.380,-38997.320,-40466.700,-85975.500,-19072.470,-42656.110,-39313.330,-140163.800,0.000
-37933.510,-39042.710,-40513.590,-86032.450,-19092.800,-42704.480,-39355.050,-140335.300,0.000
-37979.500,-39089.480,-40564.460,-86107.930,-19117.090,-42754.050,-39405.790,-140507.800,0.000
-38026.690,-39136.330,-40613.450,-86187.570,-19141.020,-42806.300,-39454.890,-140680.000,0.000
-38068.580,-39179.160,-40658.620,-86262.960,-19163.110,-42855.900,-39502.580,-140848.400,0.000
-38103.940,-39217.520,-40698.730,-86338.770,-19182.370,-42901.760,-39546.110,-141013.400,0.000
-38138.730,-39255.970,-40736.950,-86401.950,-19199.350,-42947.680,-39584.630,-141176.000,0.000
-38173.100,-39295.320,-40778.710,-86469.700,-19217.490,-42991.860,-39627.770,-141336.700,0.000
-38210.650,-39335.250,-40818.300,-86531.350,-19233.640,-43035.320,-39664.950,-141496.300,0.000
-38259.130,-39383.420,-40867.910,-86599.270,-19259.740,-43085.400,-39711.490,-141656.700,0.000
-38313.930,-39437.340,-40924.340,-86681.330,-19292.440,-43140.950,-39765.650,-141817.900,0.000
-38369.890,-39492.340,-40979.720,-86756.250,-19323.970,-43199.210,-39817.710,-141978.900,0.000
-38424.660,-39546.880,-41037.800,-86839.590,-19357.330,-43256.700,-39874.950,-142139.300,0.000
-38471.150,-39592.610,-41085.060,-86910.750,-19380.320,-43305.710,-39919.170,-142296.300,0.000
-38509.380,-39631.610,-41127.020,-86973.090,-19398.170,-43349.170,-39960.040,-142450.300,0.000
-38543.640,-39667.880,-41166.450,-87038.470,-19415.110,-43391.660,-40000.620,-142603.800,0.000
-38573.830,-39700.480,-41198.710,-87086.270,-19427.810,-43431.290,-40033.740,-142754.700,0.000
-38603.780,-39735.330,-41234.640,-87137.340,-19445.320,-43472.000,-40074.250,-142902.500,0.000
-38639.780,-39776.310,-41273.890,-87187.300,-19466.030,-43518.360,-40115.320,-143049.200,0.000
-38681.890,-39822.200,-41320.280,-87239.620,-19491.330,-43567.510,-40161.460,-143196.200,0.000
-38725.710,-39866.640,-41367.150,-87295.700,-19514.840,-43612.800,-40204.640,-143342.100,0.000
-38768.660,-39907.270,-41408.660,-87337.010,-19532.350,-43653.350,-40237.810,-143485.000,0.000
-38809.810,-39946.820,-41452.410,-87384.330,-19552.350,-43693.290,-40275.750,-143626.100,0.000
-38847.930,-39983.130,-41490.410,-87424.400,-19568.920,-43732.810,-40308.390,-143765.100,0.000
-38884.710,-40019.890,-41528.320,-87462.170,-19587.190,-43774.030,-40346.580,-143902.100,0.000
-38920.830,-40058.430,-41566.910,-87508.430,-19607.710,-43817.980,-40389.810,-144038.000,0.000
-38956.060,-40096.290,-41602.850,-87546.910,-19626.100,-43861.250,-40427.450,-144172.500,0.000
-38992.950,-40136.520,-41644.540,-87597.250,-19649.840,-43904.550,-40470.760,-144307.400,0.000
-39029.890,-40175.930,-41682.880,-87643.770,-19671.220,-43946.640,-40507.750,-144442.600,0.000
-39064.550,-40212.630,-41720.090,-87685.070,-19690.440,-43985.660,-40544.530,-144576.600,0.000
-39099.610,-40248.160,-41758.340,-87728.730,-19709.010,-44023.600,-40582.000,-144708.100,0.000
-39136.550,-40282.980,-41795.510,-87758.700,-19725.430,-44060.730,-40613.730,-144835.900,0.000
-39172.650,-40317.210,-41835.150,-87794.270,-19743.420,-44095.340,-40648.400,-144961.000,0.000
-39205.330,-40348.130,-41867.700,-87824.680,-19755.330,-44127.130,-40674.750,-145084.800,0.000
-39236.140,-40378.910,-41899.690,-87854.950,-19768.240,-44160.500,-40705.360,-145209.300,0.000
-39267.060,-40411.800,-41933.300,-87893.130,-19785.760,-44199.020,-40743.220,-145334.600,0.000
-39296.550,-40444.650,-41963.420,-87920.900,-19801.750,-44239.060,-40778.040,-145458.800,0.000
-39322.820,-40476.420,-41994.220,-87954.050,-19817.970,-44275.190,-40814.730,-145580.700,0.000
-39350.810,-40508.640,-42024.480,-87981.980,-19833.280,-44311.170,-40845.400,-145700.500,0.000
-39384.670,-40546.320,-42063.210,-88010.330,-19854.880,-44352.140,-40882.710,-145819.300,0.000
-39419.060,-40583.530,-42102.640,-88041.340,-19875.500,-44391.180,-40919.610,-145936.100,0.000
-39450.250,-40613.800,-42133.900,-88057.980,-19888.040,-44423.520,-40945.700,-146050.100,0.000
-39480.060,-40641.080,-42165.900,-88085.230,-19902.460,-44453.970,-40977.030,-146163.300,0.000
-39510.680,-40667.890,-42195.200,-88111.550,-19916.150,-44485.160,-41004.860,-146276.100,0.000
-39543.380,-40697.780,-42227.340,-88137.880,-19932.720,-44516.740,-41035.360,-146388.300,0.000
-39577.340,-40730.910,-42261.270,-88170.380,-19951.570,-44549.470,-41068.060,-146499.400,0.000
-39612.800,-40767.360,-42295.160,-88196.840,-19970.510,-44586.160,-41099.290,-146609.500,0.000
-39646.910,-40805.070,-42332.470,-88236.160,-19991.620,-44624.370,-41137.130,-146718.500,0.000
-39675.670,-40836.320,-42361.210,-88266.660,-20004.610,-44657.260,-41164.020,-146824.300,0.000
-39701.600,-40863.730,-42388.690,-88291.050,-20015.750,-44684.950,-41188.230,-146927.600,0.000
-39729.150,-40891.710,-42419.180,-88323.330,-20028.970,-44712.750,-41214.500,-147030.600,0.000
-39761.370,-40922.170,-42451.660,-88351.630,-20044.310,-44745.270,-41241.320,-147133.500,0.000
-39793.530,-40952.330,-42487.310,-88391.360,-20064.330,-44779.170,-41276.300,-147235.400,0.000
-39820.790,-40978.220,-42514.990,-88423.660,-20079.550,-44811.020,-41304.190,-147334.900,0.000
-39846.800,-41006.480,-42544.300,-88454.200,-20096.990,-44844.210,-41335.160,-147433.300,0.000
-39872.170,-41035.650,-42574.590,-88488.050,-20114.920,-44876.060,-41365.920,-147530.600,0.000
-39894.950,-41060.390,-42598.460,-88504.320,-20125.330,-44902.490,-41386.640,-147625.700,0.000
-39914.520,-41082.360,-42621.910,-88525.590,-20133.760,-44924.970,-41410.120,-147718.600,0.000
-39934.920,-41104.610,-42642.410,-88545.100,-20140.240,-44949.070,-41430.650,-147810.800,0.000
-39963.000,-41133.180,-42671.010,-88572.430,-20155.330,-44979.820,-41460.920,-147904.500,0.000
-39994.330,-41163.290,-42703.070,-88608.760,-20174.420,-45011.640,-41494.230,-147998.000,0.000
-40021.530,-41189.570,-42728.980,-88629.690,-20188.340,-45040.370,-41518.810,-148088.500,0.000
-40044.590,-41214.840,-42755.800,-88657.140,-20203.970,-45068.720,-41548.140,-148177.000,0.000
-40065.910,-41238.350,-42777.880,-88677.700,-20215.480,-45096.220,-41570.720,-148263.700,0.000
-40087.300,-41261.900,-42801.500,-88695.140,-20226.190,-45122.330,-41594.070,-148349.900,0.000
-40107.500,-41284.120,-42825.000,-88715.580,-20236.480,-45147.090,-41618.400,-148435.300,0.000
-40129.020,-41306.630,-42846.840,-88726.400,-20247.490,-45173.920,-41641.130,-148519.000,0.000
-40154.170,-41333.470,-42875.950,-88756.420,-20266.620,-45204.310,-41674.340,-148603.100,0.000
-40178.390,-41358.170,-42900.520,-88782.600,-20281.440,-45232.070,-41699.360,-148685.700,0.000
-40197.480,-41377.380,-42921.370,-88796.870,-20291.560,-45253.230,-41720.060,-148764.300,0.000
-40211.020,-41391.320,-42937.690,-88810.310,-20297.300,-45268.700,-41736.890,-148840.200,0.000
-40227.380,-41407.750,-42953.230,-88817.730,-20302.290,-45287.060,-41751.230,-148916.300,0.000
-40254.160,-41435.190,-42982.300,-88848.480,-20319.390,-45315.640,-41781.830,-148994.900,0.000
-40283.190,-41463.910,-43010.170,-88878.250,-20335.890,-45346.580,-41809.220,-149072.800,0.000
-40303.810,-41483.980,-43030.900,-88897.630,-20345.940,-45369.480,-41830.210,-149147.200,0.000
-40318.270,-41497.060,-43046.040,-88917.290,-20351.140,-45385.200,-41844.870,-149218.500,0.000
-40335.420,-41512.960,-43061.630,-88927.200,-20356.900,-45403.110,-41856.690,-149288.600,0.000
-40356.860,-41536.000,-43087.160,-88952.160,-20371.750,-45426.930,-41882.160,-149358.800,0.000
-40378.300,-41559.130,-43109.500,-88973.880,-20384.210,-45451.790,-41903.710,-149428.300,0.000
-40398.150,-41580.800,-43130.370,-88991.910,-20395.200,-45475.060,-41925.020,-149497.000,0.000
-40414.780,-41598.020,-43148.270,-89014.340,-20403.950,-45494.720,-41944.680,-149564.200,0.000
-40430.410,-41611.890,-43161.730,-89023.750,-20409.320,-45513.230,-41958.930,-149629.300,0.000
-40448.750,-41629.040,-43181.190,-89044.840,-20420.660,-45533.950,-41982.860,-149694.200,0.000
-40466.060,-41645.050,-43195.330,-89057.980,-20427.960,-45551.850,-41999.070,-149757.700,0.000
-40480.920,-41660.470,-43208.450,-89061.650,-20434.190,-45567.500,-42013.750,-149818.100,0.000
-40495.870,-41678.070,-43225.140,-89073.210,-20444.020,-45585.840,-42031.440,-149877.200,0.000
-40513.400,-41698.050,-43243.760,-89079.580,-20455.340,-45607.630,-42047.390,-149936.500,0.000
-40533.880,-41720.890,-43269.690,-89098.490,-20471.370,-45630.750,-42072.130,-149996.500,0.000
-40552.390,-41739.350,-43289.520,-89108.140,-20480.450,-45649.380,-42087.640,-150055.000,0.000
-40566.050,-41752.430,-43305.160,-89108.730,-20485.800,-45662.850,-42100.400,-150110.800,0.000
-40575.810,-41762.820,-43317.840,-89114.260,-20490.710,-45674.750,-42114.610,-150165.100,0.000
-40585.610,-41773.590,-43327.020,-89108.930,-20493.940,-45687.960,-42125.070,-150218.600,0.000
-40600.020,-41789.190,-43343.860,-89114.510,-20503.990,-45704.480,-42144.160,-150271.500,0.000
-40618.640,-41807.190,-43361.390,-89117.200,-20514.990,-45723.420,-42159.600,-150322.900,0.000
-40637.450,-41826.130,-43381.410,-89119.700,-20527.790,-45742.470,-42176.930,-150373.400,0.000
-40652.770,-41843.000,-43400.130,-89130.180,-20538.590,-45758.540,-42193.480,-150423.200,0.000
-40665.410,-41857.430,-43413.370,-89126.830,-20544.150,-45772.130,-42202.710,-150472.000,0.000
-40675.060,-41870.330,-43427.440,-89128.270,-20551.420,-45783.070,-42216.270,-150519.700,0.000
-40681.760,-41878.390,-43434.110,-89122.290,-20553.870,-45790.690,-42221.800,-150565.200,0.000
-40690.680,-41886.970,-43442.770,-89118.550,-20558.550,-45801.240,-42231.880,-150610.400,0.000
-40699.050,-41895.250,-43452.280,-89125.880,-20563.560,-45814.120,-42245.290,-150654.900,0.000
-40704.040,-41900.740,-43455.790,-89118.030,-20562.260,-45824.840,-42250.340,-150696.100,0.000
-40712.710,-41910.990,-43466.320,-89119.890,-20566.500,-45835.830,-42262.380,-150736.100,0.000
-40726.990,-41925.830,-43478.540,-89121.990,-20572.860,-45848.110,-42271.590,-150776.100,0.000
-40742.190,-41942.580,-43494.150,-89125.090,-20582.670,-45861.840,-42285.240,-150816.000,0.000
-40756.220,-41958.250,-43511.460,-89139.540,-20594.720,-45876.290,-42303.250,-150855.800,0.000
-40767.730,-41970.010,-43523.080,-89140.860,-20602.140,-45888.520,-42313.720,-150893.800,0.000
-40772.800,-41977.040,-43532.740,-89145.080,-20607.850,-45897.720,-42326.000,-150929.800,0.000
-40773.810,-41979.430,-43535.270,-89142.890,-20608.310,-45906.860,-42331.910,-150964.000,0.000
-40779.300,-41985.440,-43541.440,-89140.800,-20611.730,-45918.430,-42341.600,-150997.700,0.000
-40790.520,-41996.500,-43552.580,-89149.060,-20618.090,-45929.700,-42353.590,-151031.400,0.000
-40803.650,-42007.800,-43561.440,-89144.120,-20621.450,-45938.550,-42358.430,-151063.700,0.000
-40813.880,-42016.480,-43572.040,-89143.430,-20625.650,-45943.480,-42366.260,-151094.300,0.000
-40819.380,-42019.220,-43576.860,-89135.640,-20624.580,-45944.690,-42365.860,-151123.200,0.000
-40825.420,-42023.770,-43584.460,-89124.870,-20627.160,-45949.570,-42370.720,-151151.600,0.000
-40833.710,-42033.840,-43595.270,-89122.460,-20635.520,-45960.780,-42383.820,-151179.300,0.000
-40841.840,-42044.640,-43602.040,-89108.820,-20642.430,-45974.480,-42393.640,-151206.000,0.000
-40848.500,-42054.230,-43611.240,-89102.450,-20650.750,-45986.900,-42407.680,-151232.300,0.000
-40853.210,-42059.570,-43615.640,-89088.730,-20652.490,-45994.630,-42411.990,-151256.300,0.000
-40859.060,-42064.180,-43621.520,-89071.550,-20653.900,-45999.600,-42415.960,-151278.000,0.000
-40867.510,-42070.330,-43630.400,-89065.230,-20658.540,-46004.640,-42423.490,-151299.500,0.000
-40874.430,-42074.590,-43635.330,-89046.900,-20659.820,-46008.290,-42424.980,-151319.700,0.000
-40876.490,-42075.820,-43641.380,-89032.270,-20661.020,-46009.100,-42429.300,-151338.200,0.000
-40876.190,-42075.520,-43643.060,-89012.460,-20658.740,-46010.740,-42428.490,-151355.500,0.000
-40878.540,-42079.960,-43647.240,-88993.100,-20660.210,-46017.690,-42434.320,-151373.200,0.000
-40881.250,-42084.830,-43650.540,-88981.980,-20662.480,-46023.780,-42442.270,-151391.000,0.000
-40882.020,-42085.070,-43646.800,-88958.080,-20659.290,-46024.710,-42440.410,-151407.300,0.000
-40885.640,-42087.760,-43649.790,-88946.160,-20662.570,-46027.110,-42446.330,-151423.100,0.000
-40893.550,-42093.790,-43655.100,-88935.910,-20668.050,-46033.130,-42450.840,-151438.300,0.000
-40903.030,-42102.200,-43664.370,-88924.170,-20675.660,-46040.300,-42457.550,-151452.100,0.000
-40909.830,-42109.520,-43673.780,-88917.850,-20682.390,-46046.160,-42464.620,-151464.900,0.000
-40912.490,-42112.960,-43676.570,-88898.640,-20683.590,-46049.890,-42464.260,-151476.300,0.000
-40913.670,-42115.810,-43681.460,-88886.950,-20687.590,-46053.080,-42470.080,-151487.200,0.000
-40915.840,-42119.460,-43683.760,-88870.910,-20690.200,-46057.860,-42473.020,-151497.400,0.000
-40918.910,-42125.490,-43687.250,-88851.420,-20693.630,-46064.820,-42479.600,-151506.000,0.000
-40920.560,-42129.300,-43689.530,-88838.480,-20695.100,-46069.610,-42485.890,-151512.100,0.000
-40921.500,-42128.850,-43686.470,-88814.010,-20690.960,-46069.860,-42482.230,-151516.400,0.000
-40920.340,-42125.990,-43684.090,-88793.870,-20687.940,-46065.070,-42480.300,-151520.100,0.000
-40916.290,-42119.960,-43676.250,-88767.040,-20681.630,-46057.030,-42471.150,-151523.000,0.000
-40914.830,-42118.450,-43674.380,-88742.540,-20681.080,-46053.640,-42468.180,-151527.200,0.000
-40914.470,-42119.930,-43677.610,-88726.550,-20684.620,-46053.830,-42470.590,-151531.400,0.000
-40911.600,-42117.930,-43676.000,-88694.950,-20682.790,-46052.620,-42466.300,-151532.400,0.000
-40909.410,-42117.340,-43678.040,-88671.840,-20684.670,-46053.500,-42470.230,-151531.800,0.000
-40911.270,-42119.930,-43679.740,-88648.770,-20688.000,-46058.640,-42473.700,-151530.800,0.000
-40915.450,-42124.590,-43684.030,-88626.050,-20693.710,-46064.850,-42479.940,-151529.800,0.000
-40916.380,-42126.850,-43686.550,-88608.490,-20697.470,-46067.050,-42483.870,-151527.700,0.000
-40914.570,-42125.560,-43683.310,-88577.640,-20695.130,-46064.390,-42477.800,-151523.700,0.000
-40912.020,-42124.130,-43682.480,-88555.880,-20694.210,-46059.240,-42476.560,-151519.300,0.000
-40907.460,-42119.970,-43675.430,-88526.810,-20688.520,-46053.280,-42469.820,-151513.400,0.000
-40904.270,-42116.270,-43670.910,-88494.210,-20685.430,-46050.220,-42467.080,-151505.500,0.000
-40905.910,-42116.480,-43673.370,-88475.440,-20689.400,-46050.980,-42471.070,-151497.300,0.000
-40910.000,-42119.080,-43675.170,-88452.040,-20693.500,-46052.680,-42471.340,-151489.100,0.000
-40911.430,-42122.260,-43679.050,-88439.630,-20699.460,-46053.290,-42476.250,-151481.000,0.000
-40906.710,-42119.700,-43674.930,-88420.700,-20698.620,-46050.660,-42472.190,-151471.800,0.000
-40895.970,-42110.400,-43665.490,-88394.860,-20693.070,-46043.280,-42464.480,-151460.700,0.000
-40883.050,-42098.080,-43654.090,-88373.680,-20686.740,-46033.770,-42456.570,-151448.000,0.000
-40874.300,-42089.250,-43643.060,-88340.500,-20681.420,-46028.810,-42446.940,-151434.200,0.000
-40870.520,-42085.810,-43640.760,-88315.910,-20682.330,-46027.130,-42446.980,-151419.500,0.000
-40868.530,-42080.420,-43636.160,-88287.840,-20679.080,-46021.140,-42439.840,-151403.500,0.000
-40869.950,-42076.640,-43634.020,-88262.880,-20676.870,-46013.180,-42433.070,-151388.600,0.000
-40872.720,-42076.100,-43633.860,-88247.250,-20676.470,-46006.450,-42428.720,-151374.500,0.000
-40870.920,-42072.750,-43626.820,-88212.590,-20670.550,-45999.380,-42417.890,-151358.200,0.000
-40864.500,-42066.640,-43620.020,-88180.940,-20666.460,-45991.870,-42413.100,-151340.600,0.000
-40857.630,-42058.830,-43610.660,-88145.280,-20661.650,-45984.470,-42404.260,-151321.700,0.000
-40853.090,-42054.410,-43606.360,-88110.830,-20661.510,-45980.050,-42400.400,-151301.500,0.000
-40847.040,-42050.410,-43602.520,-88084.700,-20662.740,-45975.680,-42398.740,-151280.000,0.000
-40837.810,-42042.020,-43591.060,-88044.170,-20657.410,-45967.710,-42387.520,-151256.900,0.000
-40828.950,-42033.870,-43583.050,-88012.540,-20654.010,-45959.350,-42381.980,-151233.500,0.000
-40819.290,-42023.620,-43570.780,-87975.400,-20646.560,-45949.250,-42370.660,-151209.600,0.000
-40809.950,-42012.820,-43558.990,-87934.900,-20639.950,-45938.060,-42361.290,-151185.500,0.000
-40804.930,-42004.250,-43551.570,-87904.160,-20637.900,-45928.690,-42356.770,-151161.300,0.000
-40802.820,-41996.450,-43543.410,-87862.540,-20634.500,-45919.800,-42346.390,-151135.600,0.000
-40800.460,-41991.480,-43540.490,-87832.090,-20635.750,-45912.610,-42343.270,-151109.500,0.000
-40795.590,-41986.480,-43533.710,-87797.240,-20635.420,-45907.620,-42337.270,-151082.000,0.000
-40787.100,-41981.300,-43525.810,-87756.470,-20634.790,-45902.820,-42332.230,-151052.500,0.000
-40777.010,-41977.210,-43518.550,-87722.150,-20635.340,-45897.560,-42328.540,-151023.000,0.000
-40769.040,-41973.280,-43509.650,-87675.800,-20634.110,-45893.200,-42320.440,-150993.300,0.000
-40760.660,-41967.110,-43504.020,-87638.780,-20633.790,-45887.350,-42318.240,-150962.700,0.000
-40747.260,-41952.940,-43489.560,-87594.320,-20623.980,-45874.350,-42304.680,-150929.600,0.000
-40733.960,-41936.760,-43475.040,-87543.950,-20612.310,-45857.550,-42288.740,-150894.700,0.000
-40727.660,-41925.860,-43468.690,-87506.300,-20607.630,-45844.740,-42279.860,-150860.700,0.000
-40726.300,-41918.670,-43463.710,-87461.770,-20605.300,-45835.930,-42269.640,-150827.200,0.000
-40722.610,-41912.360,-43460.360,-87424.910,-20606.020,-45826.630,-42264.590,-150791.600,0.000
-40715.160,-41905.800,-43450.910,-87380.230,-20604.190,-45818.450,-42254.410,-150753.100,0.000
-40706.270,-41901.330,-43442.420,-87331.150,-20604.820,-45813.570,-42247.800,-150714.100,0.000
-40695.210,-41895.080,-43434.420,-87292.490,-20606.020,-45807.510,-42244.030,-150676.300,0.000
-40684.290,-41885.800,-43422.770,-87244.480,-20602.850,-45799.100,-42234.850,-150638.800,0.000
-40673.180,-41874.880,-43414.410,-87203.450,-20599.750,-45787.350,-42228.880,-150600.500,0.000
-40660.990,-41860.660,-43401.030,-87154.320,-20590.820,-45771.940,-42212.830,-150561.300,0.000
-40651.620,-41848.290,-43389.270,-87103.160,-20584.520,-45757.990,-42199.530,-150521.100,0.000
-40640.660,-41834.250,-43376.050,-87062.920,-20578.670,-45743.430,-42189.170,-150478.400,0.000
-40626.230,-41818.410,-43356.140,-87011.160,-20567.760,-45728.760,-42171.710,-150433.200,0.000
-40613.680,-41809.140,-43343.440,-86970.360,-20563.680,-45718.140,-42163.660,-150389.500,0.000
-40600.580,-41798.740,-43328.180,-86921.970,-20556.680,-45704.950,-42149.600,-150345.200,0.000
-40583.430,-41781.220,-43309.980,-86862.280,-20544.460,-45683.890,-42130.160,-150297.500,0.000
-40563.680,-41758.630,-43291.230,-86809.650,-20529.920,-45657.150,-42108.380,-150247.800,0.000
-40546.680,-41737.230,-43271.970,-86748.240,-20515.060,-45633.210,-42083.140,-150198.100,0.000
-40534.930,-41723.310,-43261.740,-86701.770,-20509.450,-45617.150,-42071.530,-150149.900,0.000
-40526.380,-41714.060,-43250.680,-86658.700,-20505.260,-45605.410,-42059.970,-150103.200,0.000
-40521.050,-41709.680,-43242.490,-86617.880,-20505.500,-45598.210,-42053.700,-150058.600,0.000
-40511.730,-41702.220,-43232.560,-86585.720,-20505.570,-45590.190,-42048.460,-150014.000,0.000
-40492.710,-41684.660,-43211.080,-86532.590,-20495.780,-45574.990,-42030.410,-149965.400,0.000
-40473.340,-41668.120,-43194.480,-86484.200,-20490.650,-45560.030,-42019.770,-149914.500,0.000
-40457.340,-41654.460,-43179.070,-86434.610,-20486.460,-45547.110,-42006.850,-149862.900,0.000
-40435.640,-41636.090,-43159.840,-86376.210,-20476.650,-45527.930,-41988.820,-149809.200,0.000
-40406.580,-41611.610,-43135.700,-86319.460,-20461.320,-45502.220,-41967.550,-149753.100,0.000
-40381.360,-41589.340,-43110.520,-86251.300,-20445.850,-45480.050,-41943.660,-149696.400,0.000
-40365.050,-41574.950,-43096.100,-86196.660,-20440.590,-45464.870,-41932.890,-149640.700,0.000
-40349.310,-41558.910,-43078.810,-86138.670,-20432.290,-45447.580,-41916.590,-149584.200,0.000
-40326.830,-41536.810,-43056.940,-86071.210,-20418.400,-45423.700,-41895.330,-149526.000,0.000
-40298.550,-41510.850,-43031.730,-86010.270,-20402.360,-45396.510,-41873.210,-149466.700,0.000
-40270.570,-41484.730,-43002.070,-85938.840,-20384.650,-45370.440,-41845.620,-149406.800,0.000
-40245.640,-41462.710,-42979.290,-85878.190,-20374.430,-45348.490,-41827.550,-149347.500,0.000
-40222.540,-41442.850,-42956.600,-85817.510,-20365.380,-45330.130,-41807.920,-149288.600,0.000
-40203.080,-41427.580,-42939.200,-85754.960,-20360.240,-45314.960,-41792.420,-149229.100,0.000
-40187.160,-41414.860,-42927.730,-85702.790,-20357.980,-45300.310,-41780.800,-149168.200,0.000
-40172.580,-41399.360,-42913.140,-85639.810,-20350.860,-45283.210,-41761.510,-149106.200,0.000
-40157.700,-41382.080,-42900.440,-85584.980,-20344.610,-45263.360,-41746.630,-149043.000,0.000
-40140.630,-41360.560,-42880.830,-85525.800,-20333.200,-45240.190,-41724.840,-148977.000,0.000
-40124.360,-41339.500,-42860.470,-85462.750,-20322.290,-45217.800,-41704.060,-148910.900,0.000
-40110.840,-41323.770,-42844.290,-85413.310,-20316.640,-45200.250,-41689.340,-148847.300,0.000
-40097.350,-41310.250,-42825.820,-85356.450,-20309.970,-45184.990,-41670.780,-148784.100,0.000
-40082.380,-41297.300,-42810.410,-85307.730,-20306.030,-45168.470,-41658.050,-148720.000,0.000
-40067.900,-41283.070,-42792.590,-85253.450,-20299.990,-45151.180,-41639.920,-148653.500,0.000
-40056.740,-41270.300,-42778.640,-85193.880,-20296.480,-45135.440,-41624.360,-148585.100,0.000
-40045.610,-41256.630,-42766.510,-85146.360,-20294.600,-45118.330,-41612.580,-148516.600,0.000
-40029.900,-41236.520,-42745.850,-85087.400,-20286.120,-45096.640,-41591.810,-148447.000,0.000
-40009.860,-41212.410,-42725.020,-85032.360,-20276.960,-45071.790,-41573.290,-148376.100,0.000
-39987.440,-41186.480,-42700.280,-84974.410,-20263.740,-45046.100,-41548.160,-148304.900,0.000
-39964.960,-41163.530,-42676.090,-84913.100,-20251.440,-45022.280,-41524.380,-148233.100,0.000
-39943.060,-41143.710,-42653.120,-84858.450,-20240.490,-44999.130,-41504.050,-148160.300,0.000
-39924.210,-41125.500,-42628.680,-84791.660,-20227.480,-44977.360,-41480.090,-148086.600,0.000
-39910.010,-41111.220,-42612.890,-84735.300,-20222.040,-44959.850,-41466.510,-148013.700,0.000
-39897.540,-41097.530,-42597.360,-84679.110,-20217.720,-44943.890,-41449.620,-147941.500,0.000
-39883.860,-41083.000,-42582.750,-84617.780,-20213.840,-44926.830,-41432.570,-147868.500,0.000
-39867.900,-41066.250,-42568.630,-84562.760,-20209.690,-44907.320,-41416.910,-147793.500,0.000
-39852.120,-41047.540,-42550.340,-84498.100,-20202.400,-44886.690,-41395.990,-147716.900,0.000
-39834.700,-41027.730,-42533.260,-84441.810,-20197.170,-44864.430,-41381.140,-147640.500,0.000
-39811.990,-41002.710,-42508.090,-84378.630,-20185.370,-44837.740,-41357.700,-147562.700,0.000
-39788.300,-40977.180,-42481.380,-84308.270,-20172.780,-44811.970,-41334.590,-147484.000,0.000
-39765.680,-40953.810,-42456.420,-84246.170,-20162.380,-44788.930,-41315.640,-147404.800,0.000
-39743.260,-40930.880,-42429.020,-84174.700,-20148.430,-44765.110,-41289.330,-147324.800,0.000
-39722.130,-40909.960,-42407.690,-84113.040,-20137.330,-44740.140,-41267.580,-147245.600,0.000
-39702.190,-40887.480,-42383.430,-84046.880,-20123.380,-44713.240,-41239.550,-147166.000,0.000
-39683.450,-40864.220,-42359.540,-83974.800,-20111.790,-44686.760,-41214.470,-147085.300,0.000
-39664.500,-40840.200,-42337.940,-83913.630,-20104.390,-44661.640,-41196.580,-147004.000,0.000
-39644.300,-40815.210,-42311.530,-83843.330,-20092.470,-44635.870,-41172.220,-146921.200,0.000
-39622.510,-40792.660,-42286.880,-83778.310,-20080.330,-44609.570,-41150.620,-146837.100,0.000
-39599.180,-40769.760,-42259.400,-83709.480,-20064.860,-44582.800,-41122.270,-146752.600,0.000
-39577.190,-40747.990,-42236.010,-83641.050,-20052.590,-44557.650,-41096.090,-146668.300,0.000
-39555.750,-40727.450,-42216.730,-83583.360,-20044.540,-44534.650,-41075.520,-146584.100,0.000
-39532.840,-40706.020,-42193.320,-83512.210,-20033.630,-44512.290,-41050.690,-146498.500,0.000
-39507.770,-40683.880,-42170.700,-83445.230,-20023.990,-44488.070,-41031.490,-146411.800,0.000
-39480.300,-40656.620,-42140.450,-83372.090,-20008.230,-44458.460,-41003.750,-146323.000,0.000
-39456.680,-40629.000,-42111.640,-83298.880,-19993.640,-44428.380,-40977.210,-146233.500,0.000
-39440.060,-40604.890,-42088.920,-83241.430,-19984.600,-44401.000,-40956.790,-146145.500,0.000
-39424.390,-40580.210,-42063.050,-83173.870,-19972.300,-44372.620,-40928.420,-146057.800,0.000
-39402.640,-40553.630,-42038.270,-83111.380,-19960.720,-44342.950,-40903.860,-145969.300,0.000
-39374.590,-40524.570,-42008.240,-83043.720,-19945.790,-44314.230,-40875.460,-145879.600,0.000
-39346.610,-40498.310,-41979.890,-82971.770,-19932.280,-44288.710,-40849.440,-145788.900,0.000
-39319.260,-40474.400,-41954.140,-82906.910,-19920.490,-44262.910,-40825.150,-145697.200,0.000
-39291.770,-40450.120,-41925.410,-82829.850,-19906.290,-44235.160,-40794.020,-145604.300,0.000
-39267.860,-40428.440,-41903.870,-82764.840,-19899.390,-44209.780,-40773.390,-145512.000,0.000
-39248.180,-40406.110,-41880.840,-82699.760,-19891.940,-44185.130,-40750.770,-145420.000,0.000
-39231.720,-40384.450,-41857.830,-82629.560,-19883.320,-44158.890,-40727.680,-145327.600,0.000
-39214.190,-40362.480,-41834.610,-82564.340,-19873.830,-44131.160,-40705.290,-145234.300,0.000
-39191.100,-40334.210,-41803.420,-82483.370,-19857.270,-44100.710,-40672.980,-145138.800,0.000
-39166.430,-40304.780,-41776.170,-82413.260,-19844.110,-44070.150,-40646.570,-145042.100,0.000
-39143.160,-40278.210,-41749.770,-82347.230,-19832.510,-44042.090,-40618.570,-144946.400,0.000
-39117.900,-40253.960,-41724.180,-82278.730,-19821.870,-44015.380,-40592.320,-144852.100,0.000
-39087.960,-40228.560,-41697.490,-82215.090,-19810.590,-43987.130,-40567.850,-144757.100,0.000
-39056.700,-40201.560,-41666.220,-82136.350,-19795.440,-43956.310,-40536.150,-144659.400,0.000
-39026.560,-40174.580,-41638.850,-82065.020,-19783.180,-43923.560,-40510.580,-144560.000,0.000
-38996.120,-40143.390,-41606.370,-81989.830,-19766.060,-43888.040,-40478.220,-144459.600,0.000
-38972.390,-40117.590,-41579.340,-81914.390,-19753.660,-43857.530,-40449.460,-144360.300,0.000
-38956.960,-40100.160,-41561.760,-81854.840,-19750.320,-43834.660,-40430.040,-144262.300,0.000
-38938.860,-40076.680,-41536.390,-81783.080,-19739.690,-43807.440,-40400.140,-144163.000,0.000
-38915.740,-40047.360,-41508.410,-81718.030,-19726.250,-43774.140,-40371.210,-144062.600,0.000
-38891.090,-40017.800,-41477.110,-81650.210,-19711.580,-43742.200,-40341.050,-143961.600,0.000
-38861.500,-39986.960,-41444.510,-81573.720,-19696.360,-43710.530,-40312.470,-143859.000,0.000
-38825.770,-39952.810,-41410.460,-81503.480,-19678.910,-43675.520,-40283.200,-143754.800,0.000
-38794.260,-39921.890,-41377.160,-81426.500,-19661.060,-43643.400,-40250.300,-143650.900,0.000
-38770.250,-39898.660,-41354.540,-81363.010,-19652.520,-43617.450,-40229.950,-143549.000,0.000
-38744.710,-39873.460,-41327.260,-81293.030,-19641.110,-43590.550,-40204.400,-143446.100,0.000
-38713.640,-39842.320,-41294.290,-81212.200,-19624.760,-43557.980,-40174.000,-143340.400,0.000
-38680.480,-39807.880,-41260.100,-81141.450,-19606.990,-43521.130,-40142.940,-143233.400,0.000
-38653.340,-39777.910,-41226.250,-81064.020,-19590.040,-43487.900,-40108.270,-143127.500,0.000
-38633.450,-39756.350,-41202.240,-80996.310,-19582.190,-43461.120,-40085.240,-143022.700,0.000
-38611.040,-39730.920,-41173.530,-80922.270,-19569.830,-43431.240,-40055.620,-142916.800,0.000
-38580.390,-39697.170,-41138.890,-80840.820,-19551.040,-43392.990,-40020.190,-142810.000,0.000
-38544.230,-39660.740,-41103.290,-80769.480,-19532.400,-43353.520,-39987.990,-142702.400,0.000
-38508.640,-39626.070,-41065.880,-80685.730,-19514.310,-43320.150,-39954.430,-142593.600,0.000
-38476.210,-39596.030,-41036.630,-80610.230,-19502.560,-43289.800,-39929.390,-142484.500,0.000
-38446.420,-39568.530,-41007.990,-80534.070,-19488.960,-43258.720,-39898.720,-142374.400,0.000
-38419.830,-39543.930,-40981.550,-80454.870,-19476.240,-43229.330,-39868.300,-142263.300,0.000
-38393.340,-39518.000,-40954.820,-80386.340,-19464.460,-43197.940,-39838.950,-142152.700,0.000
-38363.030,-39485.120,-40917.970,-80302.470,-19444.820,-43158.570,-39796.950,-142041.300,0.000
-38331.250,-39450.150,-40882.780,-80224.380,-19427.250,-43117.640,-39761.450,-141929.700,0.000
-38301.150,-39414.880,-40847.820,-80147.880,-19411.180,-43081.470,-39727.710,-141817.800,0.000
-38273.730,-39382.130,-40817.970,-80071.410,-19399.570,-43049.030,-39699.260,-141705.500,0.000
-38246.410,-39353.140,-40793.540,-80005.590,-19392.670,-43018.800,-39677.520,-141593.400,0.000
-38216.300,-39324.460,-40764.400,-79923.750,-19381.910,-42989.430,-39649.680,-141480.800,0.000
-38184.970,-39297.460,-40736.890,-79847.210,-19371.960,-42959.360,-39625.970,-141367.900,0.000
-38153.220,-39269.220,-40703.430,-79767.300,-19355.610,-42925.470,-39592.890,-141253.300,0.000
-38122.360,-39239.550,-40668.150,-79680.410,-19336.760,-42889.720,-39556.370,-141137.400,0.000
-38092.130,-39207.730,-40634.700,-79604.280,-19320.170,-42853.970,-39523.220,-141022.300,0.000
-38060.460,-39171.200,-40596.510,-79517.040,-19300.290,-42816.250,-39483.490,-140907.000,0.000
-38028.210,-39134.550,-40562.340,-79437.580,-19284.740,-42778.120,-39450.990,-140790.600,0.000
-37995.000,-39097.050,-40525.430,-79357.120,-19267.490,-42739.580,-39414.930,-140673.500,0.000
-37963.040,-39062.400,-40490.860,-79271.440,-19251.640,-42702.960,-39381.350,-140556.200,0.000
-37937.860,-39037.260,-40466.120,-79198.750,-19244.590,-42673.750,-39358.550,-140440.400,0.000
-37915.460,-39014.800,-40440.010,-79116.590,-19236.040,-42646.830,-39330.670,-140324.800,0.000
-37884.560,-38984.700,-40408.720,-79037.230,-19220.720,-42610.560,-39299.030,-140206.500,0.000
-37845.800,-38945.580,-40366.820,-78951.910,-19195.340,-42564.670,-39254.580,-140085.700,0.000
-37808.610,-38907.340,-40326.050,-78861.660,-19171.470,-42519.290,-39211.430,-139964.900,0.000
-37773.820,-38871.700,-40289.500,-78783.390,-19152.230,-42477.560,-39176.500,-139844.600,0.000
-37738.430,-38833.450,-40249.120,-78696.020,-19130.390,-42437.110,-39137.800,-139722.900,0.000
-37703.880,-38797.200,-40215.230,-78619.470,-19116.040,-42400.540,-39109.280,-139601.200,0.000
-37672.940,-38765.120,-40183.060,-78544.400,-19106.000,-42369.170,-39081.060,-139480.200,0.000
-37644.590,-38735.220,-40151.840,-78463.160,-19096.170,-42338.500,-39052.090,-139358.900,0.000
-37613.590,-38702.790,-40119.160,-78387.360,-19082.190,-42302.860,-39020.570,-139237.000,0.000
-37581.520,-38668.810,-40081.710,-78298.130,-19062.270,-42264.710,-38979.930,-139114.200,0.000
-37549.390,-38637.120,-40048.250,-78215.970,-19045.800,-42227.980,-38947.530,-138991.300,0.000
-37510.900,-38600.590,-40006.640,-78128.200,-19023.690,-42188.570,-38909.690,-138866.900,0.000
-37467.930,-38560.820,-39961.890,-78031.770,-18999.950,-42147.210,-38870.240,-138741.300,0.000
-37425.910,-38521.510,-39921.490,-77946.390,-18980.730,-42105.790,-38834.860,-138615.200,0.000
-37387.860,-38482.440,-39880.340,-77852.990,-18960.870,-42063.740,-38793.040,-138489.100,0.000
-37355.250,-38447.800,-39846.220,-77769.180,-18945.840,-42023.640,-38758.830,-138364.200,0.000
-37326.920,-38416.130,-39812.490,-77683.770,-18930.320,-41987.600,-38724.030,-138239.100,0.000
-37302.390,-38387.700,-39782.430,-77593.660,-18918.080,-41956.970,-38693.950,-138113.500,0.000
-37276.650,-38358.890,-39754.390,-77513.550,-18907.320,-41925.710,-38667.800,-137987.300,0.000
-37246.590,-38326.380,-39719.020,-77420.520,-18890.000,-41889.590,-38631.410,-137859.100,0.000
-37215.380,-38295.930,-39686.730,-77335.480,-18876.980,-41854.250,-38600.970,-137731.000,0.000
-37183.370,-38266.330,-39652.410,-77251.190,-18863.990,-41820.830,-38567.900,-137603.900,0.000
-37148.160,-38233.900,-39615.910,-77160.230,-18848.240,-41784.270,-38532.040,-137476.900,0.000
-37108.470,-38195.640,-39576.700,-77076.690,-18828.890,-41742.030,-38495.590,-137348.800,0.000
-37069.180,-38155.040,-39533.310,-76982.850,-18805.990,-41699.850,-38454.080,-137218.700,0.000
-37033.570,-38118.780,-39497.960,-76897.290,-18790.200,-41660.730,-38421.640,-137088.000,0.000
-36998.640,-38082.480,-39461.660,-76809.960,-18773.320,-41619.870,-38383.840,-136956.600,0.000
-36964.360,-38044.910,-39424.590,-76715.980,-18755.710,-41577.640,-38345.230,-136825.500,0.000
-36932.240,-38008.870,-39389.850,-76631.320,-18740.930,-41538.080,-38312.680,-136694.800,0.000
-36900.130,-37973.110,-39351.160,-76537.200,-18722.370,-41500.540,-38274.250,-136563.300,0.000
-36863.930,-37934.720,-39312.860,-76450.800,-18702.870,-41460.180,-38238.250,-136431.000,0.000
-36825.040,-37892.620,-39269.090,-76363.940,-18678.790,-41416.380,-38195.480,-136298.500,0.000
-36787.680,-37852.210,-39226.070,-76273.630,-18656.270,-41373.660,-38153.730,-136166.500,0.000
-36749.450,-37813.120,-39185.700,-76190.340,-18637.380,-41331.900,-38116.790,-136034.900,0.000
-36709.010,-37773.300,-39141.980,-76088.350,-18616.450,-41289.820,-38073.390,-135902.200,0.000
-36668.340,-37735.440,-39104.670,-75995.110,-18600.920,-41248.500,-38038.340,-135768.600,0.000
-36627.210,-37696.270,-39066.460,-75917.910,-18584.080,-41207.020,-38002.090,-135634.100,0.000
-36588.460,-37658.080,-39028.930,-75845.130,-18567.160,-41166.140,-37966.020,-135499.600,0.000
-36552.680,-37621.370,-38992.050,-75764.420,-18550.910,-41124.090,-37930.220,-135364.800,0.000
-36518.900,-37583.460,-38949.750,-75650.800,-18529.380,-41080.690,-37885.240,-135228.200,0.000
-36489.020,-37548.820,-38914.890,-75551.390,-18512.490,-41040.490,-37850.280,-135093.200,0.000
-36458.960,-37513.490,-38878.710,-75475.380,-18493.370,-40999.500,-37813.370,-134959.600,0.000
-36424.610,-37474.550,-38837.790,-75402.450,-18471.210,-40954.550,-37772.820,-134825.000,0.000
-36383.970,-37432.020,-38792.800,-75321.230,-18449.320,-40908.080,-37732.910,-134688.400,0.000
-36337.270,-37386.430,-38740.400,-75206.220,-18423.630,-40861.590,-37685.380,-134548.700,0.000
-36292.750,-37346.390,-38697.390,-75099.550,-18406.110,-40819.460,-37648.590,-134408.100,0.000
-36254.420,-37311.560,-38660.820,-75012.480,-18392.920,-40782.420,-37614.240,-134269.400,0.000
-36217.450,-37276.470,-38625.670,-74931.630,-18378.630,-40744.970,-37578.950,-134131.900,0.000
-36180.480,-37240.120,-38589.910,-74852.350,-18363.470,-40705.360,-37544.580,-133994.000,0.000
-36148.940,-37206.310,-38552.480,-74752.070,-18348.030,-40668.410,-37506.710,-133855.900,0.000
-36121.180,-37175.170,-38521.270,-74660.330,-18337.890,-40632.800,-37477.140,-133717.900,0.000
-36089.260,-37137.780,-38482.730,-74572.800,-18320.300,-40590.730,-37437.710,-133578.300,0.000
-36055.870,-37098.730,-38441.950,-74483.620,-18299.490,-40546.240,-37394.650,-133438.500,0.000
-36024.200,-37063.280,-38406.270,-74403.050,-18282.670,-40504.320,-37357.970,-133299.900,0.000
-35989.480,-37025.840,-38366.090,-74306.380,-18261.580,-40461.540,-37314.820,-133160.000,0.000
-35950.080,-36986.550,-38327.680,-74216.150,-18242.210,-40417.320,-37276.890,-133018.700,0.000
-35909.160,-36947.130,-38287.360,-74126.520,-18222.520,-40373.040,-37235.750,-132876.800,0.000
-35869.920,-36911.050,-38249.260,-74033.050,-18205.680,-40331.640,-37196.800,-132734.400,0.000
-35831.960,-36877.250,-38214.300,-73952.070,-18193.080,-40293.380,-37164.300,-132591.900,0.000
-35793.430,-36840.340,-38173.490,-73860.210,-18176.290,-40253.750,-37124.640,-132449.500,0.000
-35753.720,-36799.520,-38132.710,-73772.580,-18158.990,-40210.120,-37088.630,-132307.400,0.000
-35716.720,-36757.630,-38089.430,-73682.140,-18138.920,-40165.590,-37048.480,-132164.400,0.000
-35686.250,-36721.080,-38051.290,-73588.840,-18122.040,-40124.940,-37010.280,-132021.300,0.000
-35652.500,-36681.230,-38012.570,-73503.450,-18102.950,-40080.250,-36970.930,-131878.000,0.000
-35608.200,-36630.430,-37960.450,-73398.620,-18070.830,-40026.740,-36915.680,-131732.500,0.000
-35559.190,-36579.270,-37909.880,-73296.950,-18041.010,-39974.300,-36867.320,-131586.500,0.000
-35509.370,-36531.320,-37859.110,-73192.170,-18014.080,-39926.610,-36820.850,-131440.800,0.000
-35461.530,-36487.990,-37811.230,-73082.170,-17991.330,-39881.800,-36777.550,-131294.100,0.000
-35416.440,-36448.050,-37767.710,-72987.630,-17972.620,-39836.750,-36739.250,-131146.800,0.000
-35375.750,-36408.980,-37722.370,-72888.930,-17952.180,-39791.700,-36695.560,-131001.100,0.000
-35342.750,-36374.480,-37685.830,-72803.410,-17938.770,-39751.280,-36662.060,-130859.000,0.000
-35313.730,-36341.770,-37650.040,-72715.090,-17925.480,-39714.270,-36626.970,-130717.800,0.000
-35282.710,-36308.030,-37612.750,-72614.070,-17910.540,-39676.470,-36589.710,-130574.500,0.000
-35245.530,-36268.860,-37572.540,-72520.670,-17893.260,-39634.380,-36553.140,-130427.900,0.000
-35203.000,-36223.130,-37524.220,-72418.150,-17867.890,-39588.010,-36507.230,-130279.100,0.000
-35157.570,-36176.860,-37478.950,-72322.620,-17843.500,-39539.050,-36465.360,-130130.800,0.000
-35109.930,-36129.360,-37429.900,-72218.480,-17817.050,-39488.360,-36418.200,-129982.200,0.000
-35063.070,-36082.750,-37380.720,-72104.630,-17792.860,-39439.610,-36372.350,-129832.200,0.000
-35018.250,-36038.050,-37336.380,-72011.100,-17773.740,-39392.170,-36332.390,-129683.400,0.000
-34976.790,-35994.830,-37291.590,-71918.290,-17752.980,-39345.020,-36285.410,-129536.500,0.000
-34938.680,-35955.630,-37253.770,-71832.340,-17736.950,-39300.970,-36246.000,-129389.500,0.000
-34898.330,-35913.300,-37211.190,-71732.550,-17717.110,-39255.570,-36203.160,-129239.300,0.000
-34854.290,-35867.180,-37164.250,-71618.210,-17693.330,-39206.140,-36158.380,-129087.300,0.000
-34809.850,-35823.020,-37119.680,-71519.850,-17671.200,-39157.230,-36118.280,-128936.900,0.000
-34769.860,-35783.710,-37074.920,-71420.240,-17649.160,-39114.120,-36074.790,-128787.400,0.000
-34734.650,-35749.520,-37037.140,-71331.660,-17633.820,-39074.880,-36039.710,-128638.700,0.000
-34696.050,-35710.890,-36993.870,-71232.010,-17614.150,-39030.840,-35996.760,-128488.600,0.000
-34653.040,-35667.710,-36948.140,-71116.870,-17592.210,-38984.220,-35951.140,-128335.600,0.000
-34611.520,-35625.820,-36908.130,-71021.470,-17575.550,-38940.060,-35914.050,-128183.300,0.000
-34572.430,-35584.590,-36865.700,-70925.630,-17557.290,-38896.080,-35871.640,-128032.700,0.000
-34534.400,-35545.550,-36826.490,-70836.790,-17542.140,-38851.830,-35833.790,-127882.900,0.000
-34496.570,-35505.460,-36783.700,-70740.360,-17523.620,-38806.930,-35790.330,-127732.100,0.000
-34457.780,-35461.670,-36738.120,-70630.160,-17500.780,-38759.640,-35743.610,-127579.800,0.000
-34416.560,-35414.520,-36692.520,-70531.770,-17476.160,-38707.440,-35698.130,-127426.800,0.000
-34374.890,-35367.520,-36643.040,-70427.600,-17447.750,-38652.260,-35644.110,-127272.500,0.000
-34334.890,-35326.210,-36600.710,-70331.650,-17426.260,-38600.760,-35599.390,-127117.800,0.000
-34294.140,-35285.890,-36557.600,-70230.730,-17405.560,-38553.220,-35555.330,-126963.200,0.000
-34252.040,-35244.180,-36513.710,-70119.440,-17384.910,-38506.990,-35512.410,-126809.600,0.000
-34208.630,-35200.320,-36471.520,-70023.770,-17366.370,-38459.810,-35474.250,-126656.600,0.000
-34166.380,-35154.970,-36425.050,-69925.450,-17345.320,-38413.670,-35430.450,-126502.500,0.000
-34126.750,-35112.510,-36382.130,-69834.930,-17328.250,-38370.550,-35393.630,-126348.200,0.000
-34085.680,-35068.640,-36334.310,-69736.990,-17306.120,-38325.050,-35350.150,-126193.900,0.000
-34044.820,-35025.700,-36287.200,-69630.230,-17282.480,-38277.630,-35304.140,-126040.200,0.000
-34003.960,-34985.130,-36245.340,-69538.510,-17262.860,-38230.510,-35263.500,-125886.400,0.000
-33959.140,-34941.790,-36198.140,-69436.230,-17239.470,-38183.590,-35216.890,-125729.800,0.000
-33911.630,-34896.560,-36152.560,-69336.870,-17218.150,-38137.230,-35176.150,-125572.500,0.000
-33863.600,-34848.500,-36102.540,-69232.960,-17193.250,-38088.270,-35128.960,-125414.800,0.000
-33818.960,-34802.590,-36053.800,-69124.200,-17168.360,-38038.710,-35080.610,-125257.600,0.000
-33778.160,-34761.040,-36011.630,-69035.700,-17148.660,-37991.100,-35040.150,-125102.900,0.000
-33735.690,-34716.550,-35963.440,-68938.940,-17124.670,-37941.300,-34992.000,-124948.300,0.000
-33689.870,-34668.460,-35914.690,-68840.820,-17100.350,-37887.430,-34944.910,-124792.100,0.000
-33646.920,-34621.380,-35866.550,-68740.060,-17076.270,-37835.400,-34895.510,-124634.300,0.000
-33611.830,-34582.710,-35827.070,-68640.110,-17059.670,-37792.770,-34854.110,-124476.900,0.000
-33578.290,-34548.880,-35794.050,-68556.950,-17049.060,-37754.830,-34822.020,-124320.400,0.000
-33539.040,-34509.430,-35751.480,-68461.560,-17030.030,-37711.280,-34778.240,-124163.000,0.000
-33492.630,-34462.810,-35703.460,-68365.070,-17005.630,-37658.170,-34730.990,-124004.900,0.000
-33442.250,-34411.050,-35648.090,-68262.170,-16974.960,-37599.260,-34675.320,-123846.200,0.000
-33395.390,-34362.220,-35595.910,-68155.750,-16946.920,-37545.460,-34623.170,-123686.900,0.000
-33352.480,-34317.330,-35551.270,-68067.510,-16924.730,-37497.570,-34580.510,-123527.300,0.000
-33310.750,-34272.320,-35503.650,-67969.790,-16899.230,-37448.670,-34531.070,-123366.400,0.000
-33268.730,-34227.680,-35458.580,-67871.270,-16876.180,-37397.400,-34486.110,-123205.200,0.000
-33224.090,-34180.010,-35409.260,-67768.020,-16850.790,-37344.230,-34436.970,-123044.100,0.000
-33180.030,-34134.100,-35361.490,-67666.680,-16827.950,-37294.410,-34390.960,-122885.800,0.000
-33137.480,-34092.230,-35319.670,-67587.360,-16811.490,-37249.520,-34354.740,-122730.700,0.000
-33093.440,-34048.230,-35272.650,-67494.340,-16791.060,-37204.370,-34311.390,-122573.800,0.000
-33047.830,-34002.340,-35226.900,-67395.680,-16770.750,-37156.530,-34270.340,-122413.600,0.000
-33002.430,-33956.600,-35179.730,-67295.450,-16748.760,-37107.930,-34224.830,-122252.600,0.000
-32958.570,-33913.900,-35133.940,-67194.070,-16728.380,-37062.050,-34180.050,-122091.300,0.000
-32913.800,-33871.430,-35089.550,-67101.630,-16709.120,-37016.700,-34139.940,-121928.700,0.000
-32870.560,-33829.440,-35042.550,-66998.000,-16686.980,-36972.310,-34095.140,-121766.300,0.000
-32831.300,-33791.090,-35002.550,-66905.120,-16671.110,-36929.770,-34059.510,-121606.900,0.000
-32787.120,-33745.380,-34955.260,-66809.020,-16649.500,-36880.340,-34016.160,-121447.100,0.000
-32736.270,-33691.930,-34901.010,-66698.550,-16621.690,-36824.710,-33966.470,-121284.400,0.000
-32685.860,-33639.490,-34849.730,-66599.120,-16596.780,-36770.540,-33922.250,-121121.300,0.000
-32639.210,-33590.000,-34798.020,-66496.650,-16570.610,-36718.110,-33872.030,-120959.900,0.000
-32597.130,-33546.410,-34754.070,-66402.770,-16549.100,-36667.910,-33826.660,-120799.900,0.000
-32558.890,-33507.000,-34711.070,-66304.550,-16528.210,-36621.270,-33779.110,-120639.500,0.000
-32523.010,-33470.080,-34669.800,-66196.420,-16509.500,-36577.590,-33733.580,-120478.600,0.000
-32484.450,-33430.630,-34629.800,-66096.300,-16492.540,-36531.890,-33692.900,-120317.000,0.000
-32440.970,-33384.790,-34581.240,-65984.700,-16468.970,-36481.610,-33643.650,-120152.900,0.000
-32394.620,-33337.240,-34532.830,-65879.850,-16446.480,-36429.920,-33600.030,-119988.500,0.000
-32346.510,-33287.710,-34480.680,-65774.800,-16421.400,-36378.040,-33553.640,-119824.100,0.000
-32299.820,-33239.340,-34429.450,-65663.410,-16396.600,-36327.520,-33506.820,-119659.700,0.000
-32254.910,-33194.390,-34383.380,-65564.570,-16375.600,-36277.870,-33464.290,-119496.600,0.000
-32210.900,-33150.500,-34335.360,-65458.250,-16352.380,-36228.690,-33415.230,-119333.400,0.000
-32168.960,-33109.730,-34293.130,-65359.200,-16334.740,-36183.770,-33375.430,-119169.200,0.000
-32126.640,-33067.820,-34247.460,-65259.500,-16315.310,-36140.950,-33334.090,-119004.600,0.000
-32080.760,-33021.290,-34196.250,-65150.900,-16290.120,-36093.130,-33287.550,-118839.900,0.000
-32033.440,-32972.410,-34145.480,-65050.220,-16263.680,-36039.620,-33241.430,-118675.400,0.000
-31991.070,-32924.880,-34095.310,-64941.840,-16236.770,-35987.170,-33190.130,-118511.400,0.000
-31954.110,-32881.590,-34054.360,-64843.550,-16217.060,-35938.720,-33147.770,-118348.400,0.000
-31915.660,-32837.900,-34011.300,-64743.630,-16194.770,-35889.110,-33100.540,-118184.000,0.000
-31871.080,-32791.060,-33962.900,-64632.030,-16166.920,-35834.540,-33046.700,-118017.400,0.000
-31821.570,-32740.550,-33911.670,-64526.880,-16137.710,-35776.600,-32994.130,-117850.800,0.000
-31773.250,-32689.500,-33856.180,-64414.680,-16108.180,-35721.970,-32938.960,-117684.900,0.000
-31726.660,-32643.520,-33808.440,-64316.620,-16088.380,-35673.780,-32896.990,-117520.500,0.000
-31678.050,-32598.330,-33760.520,-64221.450,-16069.600,-35626.430,-32854.430,-117356.400,0.000
-31628.680,-32550.930,-33710.700,-64115.330,-16048.310,-35576.770,-32808.840,-117190.500,0.000
-31578.470,-32501.570,-33661.630,-64012.220,-16026.680,-35525.520,-32766.070,-117022.700,0.000
-31530.610,-32454.340,-33611.710,-63897.490,-16003.070,-35476.170,-32719.040,-116854.700,0.000
-31490.980,-32414.630,-33572.880,-63795.820,-15987.190,-35430.810,-32681.330,-116688.600,0.000
-31456.500,-32375.070,-33534.360,-63698.820,-15971.160,-35383.960,-32638.550,-116523.500,0.000
-31421.300,-32332.890,-33492.590,-63594.570,-15953.190,-35333.810,-32590.340,-116358.400,0.000
-31381.170,-32289.070,-33449.570,-63497.200,-15935.410,-35281.880,-32543.870,-116192.800,0.000
-31335.310,-32241.270,-33398.770,-63385.860,-15911.000,-35229.090,-32490.280,-116025.400,0.000
-31284.450,-32190.930,-33347.260,-63280.240,-15885.040,-35176.130,-32442.960,-115856.700,0.000
-31229.920,-32137.880,-33289.530,-63175.530,-15853.880,-35121.350,-32391.320,-115688.200,0.000
-31179.130,-32088.950,-33234.710,-63067.210,-15826.280,-35068.930,-32340.740,-115521.800,0.000
-31133.190,-32044.920,-33188.380,-62970.250,-15806.570,-35019.400,-32297.660,-115356.100,0.000
-31087.000,-31997.540,-33137.870,-62859.910,-15781.790,-34966.810,-32245.940,-115188.200,0.000
-31041.030,-31948.670,-33090.490,-62757.030,-15758.310,-34912.160,-32199.280,-115020.300,0.000
-30996.680,-31899.910,-33042.620,-62656.470,-15734.980,-34858.520,-32151.540,-114852.800,0.000
-30956.310,-31855.130,-32997.870,-62551.370,-15714.880,-34809.430,-32106.700,-114685.100,0.000
-30919.410,-31814.790,-32958.870,-62460.300,-15699.830,-34763.980,-32069.450,-114518.600,0.000
-30877.210,-31769.450,-32910.470,-62354.810,-15676.290,-34714.120,-32020.130,-114351.300,0.000
-30825.600,-31718.510,-32857.540,-62249.590,-15649.690,-34659.370,-31970.710,-114182.900,0.000
-30773.400,-31668.360,-32803.740,-62148.020,-15624.930,-34607.430,-31921.700,-114014.900,0.000
-30729.250,-31624.410,-32757.260,-62046.720,-15607.070,-34561.740,-31877.830,-113847.300,0.000
-30687.640,-31581.170,-32714.820,-61954.640,-15591.160,-34514.230,-31836.460,-113678.700,0.000
-30640.910,-31531.590,-32661.810,-61844.130,-15563.990,-34458.940,-31780.100,-113508.100,0.000
-30591.740,-31481.600,-32609.290,-61736.940,-15536.080,-34402.320,-31727.360,-113338.100,0.000
-30543.830,-31433.050,-32556.200,-61631.450,-15508.550,-34348.820,-31675.780,-113169.300,0.000
-30496.520,-31384.340,-32503.360,-61519.150,-15481.760,-34297.080,-31626.410,-113000.000,0.000
-30447.510,-31334.490,-32452.520,-61415.850,-15457.220,-34244.770,-31582.000,-112829.700,0.000
-30398.630,-31285.050,-32398.920,-61301.000,-15431.220,-34192.370,-31530.820,-112658.500,0.000
-30354.930,-31241.960,-32355.140,-61197.180,-15414.230,-34144.300,-31489.300,-112489.000,0.000
-30314.130,-31200.900,-32312.530,-61099.540,-15398.540,-34099.130,-31447.100,-112321.500,0.000
-30271.300,-31157.560,-32265.890,-60993.080,-15378.120,-34050.910,-31399.690,-112153.700,0.000
-30227.110,-31112.730,-32219.280,-60891.420,-15356.620,-33998.940,-31353.780,-111985.000,0.000
-30183.410,-31066.470,-32168.070,-60773.140,-15331.950,-33947.280,-31302.580,-111815.000,0.000
-30139.110,-31020.870,-32120.190,-60658.200,-15311.290,-33897.520,-31259.980,-111644.000,0.000
-30094.180,-30975.100,-32071.560,-60546.730,-15289.590,-33848.160,-31215.840,-111472.200,0.000
-30049.140,-30929.020,-32022.880,-60429.390,-15266.570,-33797.960,-31168.800,-111300.200,0.000
-30000.630,-30880.550,-31974.170,-60319.310,-15243.710,-33744.220,-31121.890,-111128.600,0.000
-29952.870,-30832.420,-31923.140,-60198.150,-15219.740,-33691.160,-31068.330,-110957.700,0.000
-29910.180,-30788.990,-31881.050,-60086.700,-15204.130,-33642.630,-31025.570,-110787.600,0.000
-29865.740,-30742.100,-31834.500,-59976.570,-15184.260,-33591.700,-30978.520,-110617.200,0.000
-29817.030,-30691.090,-31780.940,-59854.210,-15155.930,-33536.080,-30924.430,-110446.100,0.000
-29767.060,-30639.880,-31727.470,-59737.380,-15126.440,-33479.880,-30874.090,-110274.600,0.000
-29720.450,-30590.580,-31672.110,-59610.960,-15096.410,-33427.640,-30821.340,-110102.900,0.000
-29677.490,-30545.110,-31623.320,-59496.090,-15072.690,-33377.750,-30776.840,-109932.400,0.000
-29632.190,-30496.690,-31571.470,-59384.220,-15046.210,-33324.110,-30725.880,-109761.200,0.000
-29585.960,-30448.290,-31520.400,-59265.060,-15020.760,-33270.930,-30673.360,-109589.400,0.000
-29543.720,-30405.880,-31479.000,-59163.860,-15004.670,-33223.180,-30632.590,-109419.200,0.000
-29503.560,-30364.110,-31435.810,-59060.200,-14987.490,-33176.910,-30588.220,-109249.400,0.000
-29460.470,-30319.140,-31391.770,-58964.360,-14969.610,-33127.350,-30545.820,-109079.400,0.000
-29412.970,-30269.090,-31340.570,-58869.450,-14945.840,-33072.350,-30495.790,-108908.700,0.000
-29363.890,-30216.900,-31286.200,-58764.780,-14918.860,-33015.170,-30442.660,-108737.100,0.000
-29315.440,-30165.260,-31235.760,-58671.610,-14895.230,-32960.340,-30396.950,-108565.100,0.000
-29269.080,-30114.400,-31183.790,-58573.450,-14870.280,-32908.780,-30347.590,-108392.500,0.000
-29223.760,-30066.630,-31136.300,-58484.700,-14848.080,-32858.070,-30304.160,-108219.400,0.000
-29176.530,-30018.510,-31085.540,-58400.150,-14822.140,-32803.850,-30254.790,-108046.000,0.000
-29129.340,-29970.720,-31034.440,-58310.940,-14795.030,-32747.870,-30201.430,-107874.600,0.000
-29083.630,-29924.490,-30988.260,-58233.500,-14772.910,-32693.630,-30154.100,-107705.500,0.000
-29038.110,-29877.180,-30938.130,-58144.640,-14749.320,-32640.900,-30101.820,-107534.800,0.000
-28992.960,-29830.650,-30891.630,-58060.140,-14728.930,-32589.340,-30056.380,-107361.800,0.000
-28947.290,-29782.190,-30842.850,-57977.140,-14705.670,-32536.970,-30008.030,-107188.100,0.000
-28900.790,-29732.270,-30792.030,-57885.600,-14680.470,-32484.040,-29957.490,-107014.700,0.000
-28855.200,-29684.960,-30745.170,-57805.040,-14659.320,-32432.110,-29913.480,-106842.600,0.000
-28811.380,-29639.660,-30696.110,-57716.010,-14636.330,-32380.920,-29864.460,-106671.700,0.000
-28766.150,-29594.530,-30649.780,-57630.320,-14615.100,-32329.740,-29820.410,-106501.300,0.000
-28716.620,-29545.130,-30598.320,-57541.750,-14590.080,-32276.360,-29771.340,-106329.100,0.000
-28666.730,-29495.020,-30544.850,-57445.060,-14564.950,-32222.810,-29720.990,-106155.700,0.000
-28618.590,-29448.370,-30496.090,-57363.580,-14545.190,-32171.930,-29678.830,-105983.000,0.000
-28570.970,-29403.050,-30444.720,-57276.130,-14523.010,-32122.830,-29630.920,-105810.800,0.000
-28523.950,-29358.700,-30397.760,-57194.070,-14503.260,-32073.370,-29586.880,-105640.100,0.000
-28478.790,-29312.640,-30350.510,-57112.680,-14481.670,-32021.720,-29539.270,-105468.800,0.000
-28436.350,-29266.060,-30303.570,-57023.830,-14459.640,-31969.550,-29491.270,-105295.700,0.000
-28392.000,-29217.420,-30257.340,-56946.540,-14439.190,-31916.720,-29448.440,-105122.800,0.000
-28344.610,-29165.580,-30203.860,-56859.490,-14413.170,-31863.190,-29397.020,-104950.300,0.000
-28296.040,-29116.170,-30152.530,-56774.890,-14389.300,-31810.400,-29349.770,-104778.300,0.000
-28244.180,-29066.800,-30098.460,-56689.280,-14363.720,-31756.650,-29299.340,-104605.300,0.000
-28191.230,-29017.660,-30044.510,-56595.720,-14338.130,-31703.460,-29248.240,-104431.300,0.000
