EEG 1, EEG 2, EEG 3, EEG 4, EEG 5, EEG 6, EEG 7, EEG 8, TRIG
243606.600,251480.700,267633.800,750000.100,111087.200,277217.700,254126.900,750000.100,0.000
239679.400,247387.200,261640.100,750000.100,110172.000,272551.200,249974.700,750000.100,0.000
236139.600,243691.800,256595.400,750000.100,109159.100,268381.700,246025.300,750000.100,0.000
232997.100,240425.000,252416.100,750000.100,108292.500,264678.900,242612.800,750000.100,0.000
230203.400,237498.900,248965.700,750000.100,107595.300,261341.600,239742.700,750000.100,0.000
227654.900,234819.500,245954.900,750000.100,106960.300,258290.100,237190.100,750000.100,0.000
225267.500,232345.600,243079.800,750000.100,106260.700,255489.700,234680.500,750000.100,0.000
223060.900,230051.900,240322.300,750000.100,105496.400,252921.500,232170.500,750000.100,0.000
221073.900,227996.700,237920.900,750000.100,104867.700,250596.800,229985.800,750000.100,0.000
219273.900,226113.700,235896.800,750000.100,104385.200,248453.800,228171.900,750000.100,0.000
217605.100,224358.100,234079.000,750000.100,103954.300,246461.600,226556.900,750000.100,0.000
216003.100,222700.800,232235.100,750000.100,103454.300,244593.200,224884.100,750000.100,0.000
214499.200,221143.200,230383.900,750000.100,102882.800,242859.700,223125.900,750000.100,0.000
213124.300,219728.100,228753.700,729869.300,102413.800,241268.900,221599.900,750000.100,0.000
211877.100,218419.600,227404.600,709081.500,102073.900,239785.400,220373.100,750000.100,0.000
210712.800,217188.200,226197.700,692686.100,101781.200,238386.500,219283.100,750000.100,0.000
209575.700,216016.100,224910.400,676802.900,101417.600,237064.600,218097.600,750000.100,0.000
208502.700,214900.100,223570.800,660464.100,100979.900,235831.700,216797.500,750000.100,0.000
207518.100,213890.400,222399.500,644265.900,100630.800,234693.900,215682.200,750000.100,0.000
206630.600,212961.400,221472.500,630748.800,100405.600,233627.400,214827.400,750000.100,0.000
205795.600,212080.600,220647.000,620761.900,100217.900,232613.100,214078.900,750000.100,0.000
204958.600,211218.200,219706.800,610590.300,99946.450,231641.200,213207.600,750000.100,0.000
204154.900,210382.800,218681.300,599406.700,99591.600,230732.800,212205.700,750000.100,0.000
203425.800,209637.400,217802.300,587860.200,99319.180,229895.700,211363.600,750000.100,0.000
202771.900,208947.400,217136.300,578477.800,99161.380,229102.600,210750.200,750000.100,0.000
202162.100,208294.100,216558.700,572175.400,99042.020,228349.700,210235.700,750000.100,0.000
201544.300,207661.300,215863.500,565386.900,98846.480,227634.600,209598.000,750000.100,0.000
200938.900,207032.400,215066.000,557310.600,98558.050,226949.800,208802.900,750000.100,0.000
200395.300,206482.100,214397.400,548607.800,98351.160,226331.500,208157.100,750000.100,0.000
199913.400,205975.500,213929.500,541780.900,98254.700,225747.100,207731.100,750000.100,0.000
199456.600,205485.000,213527.500,537790.900,98183.260,225176.900,207379.300,750000.100,0.000
198982.300,205003.000,212996.300,533135.800,98031.450,224633.500,206896.300,750000.100,0.000
198506.800,204503.700,212347.000,527040.800,97781.020,224107.500,206245.500,748224.500,0.000
198095.300,204086.100,211824.300,520167.100,97612.400,223638.800,205734.800,746267.900,0.000
197752.800,203717.800,211503.200,515028.000,97562.330,223207.000,205445.600,744449.800,0.000
197421.900,203359.000,211239.600,512567.700,97536.130,222782.300,205221.000,742767.900,0.000
197063.500,202996.200,210842.700,509349.300,97428.130,222370.200,204858.300,741146.900,0.000
196703.400,202621.600,210323.500,504621.200,97223.480,221973.800,204328.900,739579.800,0.000
196389.000,202310.300,209914.100,499036.800,97095.540,221627.800,203928.800,738084.300,0.000
196131.000,202038.200,209693.300,495069.400,97075.950,221306.600,203738.700,736696.100,0.000
195878.100,201752.300,209514.400,493688.900,97066.840,220969.300,203595.900,735418.300,0.000
195602.500,201471.700,209204.200,491487.800,96981.810,220647.000,203312.500,734184.800,0.000
195333.500,201193.300,208784.900,487730.700,96813.370,220350.900,202876.300,732984.800,0.000
195106.000,200967.800,208467.600,483041.700,96715.820,220095.500,202561.200,731832.600,0.000
194918.300,200763.600,208324.500,479901.600,96717.430,219855.300,202443.200,730769.700,0.000
194734.700,200563.400,208226.700,479267.700,96739.780,219612.400,202380.400,729801.800,0.000
194522.400,200351.000,207990.600,477779.400,96679.700,219369.800,202167.200,728864.100,0.000
194305.300,200124.700,207632.600,474683.300,96527.350,219142.100,201790.000,727942.800,0.000
194132.100,199954.300,207379.000,470639.200,96448.590,218951.800,201536.000,727057.300,0.000
193991.800,199805.200,207289.900,468084.100,96459.850,218765.400,201465.800,726244.800,0.000
193855.200,199650.800,207244.300,467966.300,96494.990,218582.000,201455.000,725515.200,0.000
193702.100,199500.800,207073.200,466981.700,96464.860,218414.200,201312.700,724806.600,0.000
193541.300,199335.400,206777.700,464400.400,96337.810,218245.000,200995.300,724105.800,0.000
193408.500,199211.800,206571.200,460855.100,96271.200,218103.900,200783.200,723425.300,0.000
193313.500,199106.400,206527.400,458735.400,96300.530,217971.500,200757.100,722808.400,0.000
193220.700,198989.500,206522.300,458971.700,96348.090,217830.200,200783.800,722262.100,0.000
193110.400,198881.700,206398.300,458378.500,96334.950,217710.100,200684.300,721729.200,0.000
192985.300,198755.000,206144.900,456170.800,96220.150,217586.900,200407.700,721192.900,0.000
192891.400,198668.000,205981.900,452997.700,96169.370,217491.400,200241.500,720675.200,0.000
192834.400,198603.400,205979.600,451220.600,96211.390,217397.900,200250.000,720215.500,0.000
192784.100,198535.200,206020.700,451772.000,96276.840,217301.300,200311.300,719815.100,0.000
192697.600,198451.800,205921.400,451469.100,96264.050,217202.600,200235.000,719418.000,0.000
192596.500,198343.900,205693.300,449561.200,96153.190,217106.600,199984.000,719012.300,0.000
192532.500,198286.300,205560.100,446692.300,96111.160,217044.100,199844.200,718616.600,0.000
192506.600,198250.100,205590.300,445190.100,96167.580,216986.300,199887.400,718269.800,0.000
192480.200,198203.900,205654.400,445939.000,96238.210,216918.000,199972.200,717979.600,0.000
192416.200,198138.800,205582.800,445853.500,96232.840,216843.300,199920.700,717683.400,0.000
192340.800,198064.500,205387.800,444181.800,96137.180,216775.900,199699.300,717377.300,0.000
192285.200,198016.500,205272.000,441595.200,96096.500,216727.600,199578.400,717074.500,0.000
192275.200,197997.000,205316.000,440304.100,96155.600,216690.200,199634.600,716818.900,0.000
192268.000,197977.300,205398.800,441158.900,96232.580,216648.100,199736.200,716612.000,0.000
192219.400,197933.900,205345.800,441249.200,96232.840,216600.800,199707.000,716399.100,0.000
192164.500,197870.100,205171.200,439772.700,96144.420,216547.500,199502.800,716170.100,0.000
192129.000,197849.700,205080.600,437393.600,96114.200,216516.800,199400.400,715941.000,0.000
192130.000,197845.700,205138.500,436269.400,96175.900,216498.900,199472.900,715751.100,0.000
192128.000,197833.700,205230.200,437227.100,96254.930,216472.200,199587.900,715603.500,0.000
192095.300,197805.700,205200.300,437476.900,96267.450,216441.900,199578.100,715452.100,0.000
192048.300,197751.300,205032.500,436143.300,96174.910,216400.300,199381.300,715276.900,0.000
192032.300,197737.200,204958.200,433929.100,96148.630,216381.400,199291.800,715102.900,0.000
192043.000,197741.700,205022.600,432930.500,96211.570,216371.600,199367.600,714965.100,0.000
192059.300,197747.500,205129.800,434002.800,96300.260,216363.500,199499.000,714871.500,0.000
192041.000,197738.500,205114.300,434365.800,96318.140,216349.300,199503.100,714766.600,0.000
192005.200,197703.300,204966.900,433159.800,96239.110,216327.100,199327.900,714633.300,0.000
191992.800,197702.000,204901.400,431059.600,96218.720,216322.700,199249.500,714499.100,0.000
192007.600,197708.900,204972.500,430152.300,96278.270,216315.400,199328.800,714398.100,0.000
192024.900,197712.700,205079.000,431276.600,96354.980,216302.000,199451.800,714333.100,0.000
192010.300,197704.400,205063.700,431719.100,96366.780,216287.500,199454.900,714258.200,0.000
191981.000,197668.100,204917.900,430598.300,96285.770,216272.300,199283.900,714162.100,0.000
191975.400,197674.100,204857.300,428576.200,96267.540,216281.500,199217.000,714053.000,0.000
191987.000,197677.100,204925.500,427722.200,96322.520,216272.200,199296.900,713979.100,0.000
192008.500,197686.200,205040.300,428903.500,96404.510,216266.900,199429.900,713943.300,0.000
192006.000,197693.100,205042.100,429398.400,96424.800,216262.600,199442.800,713892.600,0.000
191977.700,197665.300,204905.400,428328.400,96345.860,216252.300,199275.600,713815.900,0.000
191976.400,197670.900,204850.700,426358.600,96327.170,216263.100,199210.000,713732.900,0.000
192007.100,197701.500,204936.300,425555.700,96395.570,216282.900,199306.600,713681.800,0.000
192037.000,197708.000,205050.400,426732.200,96473.170,216276.200,199436.400,713663.200,0.000
192027.100,197704.000,205045.300,427264.100,96484.980,216265.500,199446.300,713630.300,0.000
191996.300,197678.700,204904.200,426246.700,96402.630,216259.100,199283.800,713572.100,0.000
191986.500,197667.600,204840.600,424358.200,96373.840,216257.700,199215.700,713504.600,0.000
192018.300,197697.100,204928.500,423645.300,96438.660,216273.800,199313.700,713467.300,0.000
192052.400,197721.200,205053.000,424872.400,96524.760,216284.800,199453.800,713462.800,0.000
192036.300,197714.300,205046.400,425451.000,96531.830,216271.100,199461.100,713439.100,0.000
192018.200,197695.700,204916.700,424504.300,96455.290,216265.000,199298.100,713391.600,0.000
192031.000,197713.200,204876.100,422701.400,96442.150,216283.700,199243.300,713336.800,0.000
192053.200,197726.300,204952.500,422040.400,96495.880,216289.600,199332.600,713308.900,0.000
192089.700,197748.200,205076.200,423314.700,96582.340,216302.400,199480.000,713318.900,0.000
192080.000,197750.600,205073.300,423959.600,96597.450,216302.000,199500.500,713308.200,0.000
192047.800,197722.600,204932.600,423054.000,96512.060,216290.300,199335.200,713268.900,0.000
192039.000,197731.900,204880.200,421293.800,96490.160,216302.400,199275.900,713220.800,0.000
192068.400,197763.200,204970.500,420691.800,96556.680,216319.800,199373.100,713205.700,0.000
192111.300,197790.300,205102.800,421996.200,96647.880,216341.100,199518.100,713226.300,0.000
192106.100,197794.300,205105.900,422672.800,96663.970,216347.700,199543.300,713222.600,0.000
192087.800,197768.600,204974.500,421811.700,96579.920,216338.400,199381.500,713191.700,0.000
192083.600,197766.200,204917.900,420079.400,96546.400,216336.800,199310.500,713150.400,0.000
192108.600,197785.300,204997.400,419468.400,96603.710,216354.100,199405.700,713132.700,0.000
192144.900,197813.600,205122.500,420756.000,96691.510,216371.300,199552.800,713150.700,0.000
192129.300,197816.800,205122.100,421432.300,96705.270,216369.200,199571.300,713152.100,0.000
192098.000,197788.600,204983.700,420555.100,96618.820,216360.200,199407.200,713127.600,0.000
192100.100,197802.000,204935.300,418801.700,96592.530,216369.900,199340.100,713089.900,0.000
192132.600,197831.500,205021.200,418169.100,96652.440,216388.700,199430.800,713077.000,0.000
192164.400,197845.900,205137.900,419414.900,96730.400,216397.200,199567.800,713099.600,0.000
192163.000,197849.400,205143.200,420069.400,96746.940,216401.600,199596.000,713108.100,0.000
192140.000,197822.100,205009.400,419186.900,96661.460,216393.800,199436.800,713085.500,0.000
192142.800,197835.100,204963.200,417428.600,96638.300,216408.300,199376.600,713050.100,0.000
192179.300,197863.000,205054.200,416803.100,96700.710,216426.700,199471.000,713041.000,0.000
192216.000,197888.400,205177.000,418069.400,96780.290,216434.900,199606.800,713067.500,0.000
192212.300,197894.300,205183.100,418748.200,96795.840,216439.100,199628.200,713079.800,0.000
192200.000,197883.000,205060.300,417898.400,96721.190,216447.000,199476.700,713063.000,0.000
192196.500,197891.000,205006.800,416173.100,96693.650,216456.200,199412.300,713031.100,0.000
192231.100,197916.200,205096.800,415588.600,96758.830,216478.100,199514.900,713027.300,0.000
192251.600,197927.200,205206.300,416886.300,96827.130,216475.700,199640.800,713050.400,0.000
192232.000,197918.700,205198.500,417594.300,96828.660,216463.200,199651.000,713055.400,0.000
192206.300,197888.400,205061.800,416783.300,96737.550,216450.200,199482.000,713035.500,0.000
192212.400,197895.900,205014.500,415112.900,96712.340,216462.700,199418.400,713009.100,0.000
192255.500,197936.400,205114.900,414580.600,96784.760,216490.400,199526.300,713007.100,0.000
192290.400,197958.800,205237.400,415937.300,96864.240,216502.400,199665.700,713034.400,0.000
192284.900,197966.500,205245.300,416715.400,96881.050,216506.000,199693.100,713047.500,0.000
192263.700,197943.900,205117.900,415967.900,96802.370,216506.400,199540.600,713034.200,0.000
192267.600,197952.600,205069.800,414338.300,96779.840,216517.500,199480.300,713008.100,0.000
192298.700,197984.700,205159.400,413833.300,96840.630,216536.200,199575.300,713008.700,0.000
192320.000,197993.600,205270.700,415215.200,96907.870,216537.700,199702.800,713034.000,0.000
192322.200,198000.100,205281.200,416026.300,96926.290,216542.100,199730.200,713048.300,0.000
192305.800,197982.700,205153.500,415306.600,96842.880,216538.000,199570.300,713036.000,0.000
192302.300,197994.400,205098.500,413675.500,96810.950,216551.800,199501.800,713009.800,0.000
192330.600,198017.200,205181.700,413141.900,96866.120,216566.300,199596.700,713007.700,0.000
192363.100,198034.300,205300.000,414510.700,96943.630,216573.200,199734.100,713036.000,0.000
192340.100,198025.100,205288.200,415269.300,96943.550,216564.500,199746.900,713047.400,0.000
192309.500,198002.700,205150.100,414487.000,96853.960,216559.200,199586.900,713030.600,0.000
192313.800,198012.800,205105.300,412803.000,96834.290,216583.000,199531.800,713004.400,0.000
192343.400,198029.900,205192.000,412210.700,96892.580,216599.700,199625.800,713002.300,0.000
192381.400,198060.200,205319.100,413554.200,96971.700,216609.800,199762.100,713030.400,0.000
192391.700,198078.600,205337.900,414315.900,96997.190,216620.500,199793.000,713041.100,0.000
192380.000,198063.200,205214.600,413531.500,96918.690,216620.500,199638.500,713026.600,0.000
192387.200,198079.500,205165.200,411810.300,96892.230,216638.200,199571.000,712997.700,0.000
192410.800,198102.000,205245.000,411204.000,96945.780,216654.000,199666.200,712993.100,0.000
192419.300,198098.400,205343.800,412548.300,97005.770,216645.900,199793.800,713019.000,0.000
192398.300,198088.300,205335.600,413302.800,97009.980,216641.300,199814.500,713031.100,0.000
192361.500,198045.400,205191.400,412510.700,96914.930,216628.500,199647.400,713011.900,0.000
192366.800,198057.400,205142.600,410804.600,96889.540,216640.000,199578.400,712986.200,0.000
192410.200,198101.100,205244.500,410205.600,96961.520,216669.600,199682.600,712985.400,0.000
192450.000,198130.400,205376.200,411591.400,97047.080,216681.800,199823.400,713018.400,0.000
192452.200,198137.700,205387.100,412382.800,97063.170,216680.600,199841.000,713033.000,0.000
192435.800,198124.500,205262.700,411623.400,96979.750,216678.400,199678.600,713015.100,0.000
192434.000,198125.500,205203.400,409931.000,96943.010,216679.400,199602.300,712986.400,0.000
192455.800,198141.400,205279.100,409344.300,96992.900,216691.800,199696.200,712982.900,0.000
192477.900,198155.600,205393.200,410752.600,97066.390,216702.000,199837.200,713013.500,0.000
192463.300,198155.200,205391.500,411544.900,97077.740,216698.600,199857.200,713026.700,0.000
192438.300,198138.500,205263.200,410798.100,96995.660,216695.800,199701.100,713012.800,0.000
192428.100,198135.900,205200.200,409099.800,96956.870,216702.600,199625.900,712985.300,0.000
192456.000,198162.600,205289.300,408516.400,97015.340,216724.700,199724.400,712984.400,0.000
192490.400,198186.400,205418.000,409951.700,97095.450,216736.500,199868.600,713015.900,0.000
192483.300,198181.400,205421.300,410781.400,97105.020,216728.500,199886.200,713030.100,0.000
192455.500,198147.500,205280.900,410058.600,97007.910,216711.700,199714.300,713015.300,0.000
192463.600,198155.600,205225.700,408398.800,96977.430,216725.800,199641.900,712992.000,0.000
192500.200,198183.400,205314.500,407842.100,97037.060,216742.500,199738.100,712989.900,0.000
192519.200,198195.100,205430.300,409314.300,97107.160,216742.000,199875.800,713019.800,0.000
192499.000,198185.700,205422.600,410167.100,97108.680,216729.000,199887.700,713034.400,0.000
192479.800,198174.900,205298.900,409483.100,97029.640,216729.000,199735.300,713020.800,0.000
192480.600,198180.600,205244.800,407848.200,97001.130,216744.300,199666.500,713000.600,0.000
192514.000,198210.000,205335.000,407297.800,97062.810,216764.600,199763.800,712998.500,0.000
192540.500,198231.000,205460.000,408779.600,97139.790,216773.000,199905.500,713028.800,0.000
192530.700,198224.900,205457.700,409638.700,97144.980,216769.100,199921.400,713044.900,0.000
192508.400,198204.700,205325.900,408936.200,97058.790,216766.600,199762.800,713029.200,0.000
192501.500,198205.100,205261.000,407269.000,97021.770,216776.100,199687.200,713006.300,0.000
192525.700,198227.100,205340.200,406681.000,97072.200,216785.000,199774.400,713006.000,0.000
192551.000,198242.800,205460.100,408136.400,97143.550,216787.500,199910.400,713035.200,0.000
192551.300,198247.100,205471.500,408993.900,97159.820,216788.600,199936.300,713054.400,0.000
192523.800,198208.700,205335.500,408281.500,97068.180,216772.800,199773.600,713040.700,0.000
192526.600,198218.300,205276.900,406605.600,97031.970,216781.200,199694.300,713014.900,0.000
192554.700,198243.200,205360.200,406005.500,97084.980,216794.200,199784.600,713010.500,0.000
192575.100,198251.700,205476.100,407462.100,97156.420,216791.900,199921.300,713039.400,0.000
192571.600,198255.300,205481.200,408337.200,97170.010,216793.400,199946.700,713057.600,0.000
192540.400,198223.600,205341.500,407654.100,97077.120,216786.400,199784.700,713045.800,0.000
192535.700,198228.600,205278.300,406030.500,97042.700,216800.200,199712.600,713021.100,0.000
192554.300,198246.700,205356.900,405493.200,97095.710,216812.600,199805.100,713018.800,0.000
192573.800,198262.900,205480.800,407035.600,97173.590,216816.000,199950.700,713053.800,0.000
192566.700,198266.400,205488.600,408006.900,97187.360,216811.800,199970.500,713070.400,0.000
192542.700,198236.400,205357.800,407446.300,97100.720,216802.500,199811.700,713059.100,0.000
192539.200,198240.700,205296.800,405946.000,97063.880,216808.900,199737.000,713041.000,0.000
192560.000,198264.700,205378.300,405534.200,97117.800,216827.000,199833.600,713044.900,0.000
192579.000,198273.800,205492.400,407178.900,97186.550,216825.800,199973.300,713081.400,0.000
192568.100,198264.700,205489.300,408244.300,97187.630,216812.400,199987.000,713103.800,0.000
192534.900,198226.400,205348.700,407754.800,97091.960,216794.100,199819.600,713091.700,0.000
192529.300,198227.400,205284.300,406307.400,97049.580,216795.800,199734.500,713067.900,0.000
192555.500,198246.900,205365.900,405919.500,97101.800,216804.300,199821.400,713069.700,0.000
192589.700,198269.500,205494.300,407563.400,97184.590,216813.000,199968.100,713106.300,0.000
192572.900,198257.700,205491.500,408620.900,97188.160,216800.100,199982.800,713128.300,0.000
192548.800,198230.500,205361.500,408123.000,97103.940,216790.600,199827.400,713119.600,0.000
192537.100,198230.600,205292.900,406654.500,97060.580,216796.500,199745.100,713095.300,0.000
192557.500,198256.200,205371.100,406213.800,97108.590,216811.000,199832.100,713093.600,0.000
192584.200,198272.800,205495.300,407786.100,97188.160,216819.200,199976.200,713128.900,0.000
192574.700,198268.600,205497.100,408791.400,97196.480,216816.000,199995.000,713149.300,0.000
192551.900,198243.900,205365.500,408257.900,97108.590,216805.600,199833.200,713139.900,0.000
192560.400,198260.800,205313.700,406778.200,97079.710,216820.500,199757.600,713118.500,0.000
192579.500,198280.200,205389.100,406305.400,97127.270,216827.000,199842.400,713116.300,0.000
192602.800,198289.600,205511.100,407827.600,97207.380,216837.700,199991.900,713153.100,0.000
192591.300,198281.500,205513.800,408799.800,97218.290,216833.300,200017.500,713173.800,0.000
192559.000,198252.100,205376.400,408221.000,97126.470,216820.500,199853.100,713159.000,0.000
192554.500,198257.100,205312.500,406699.700,97088.470,216830.400,199775.800,713135.400,0.000
192577.200,198275.500,205386.300,406197.900,97133.890,216837.500,199860.000,713133.100,0.000
192603.400,198288.100,205502.000,407667.100,97200.590,216832.600,199990.800,713161.900,0.000
192607.800,198297.800,205516.400,408635.700,97219.190,216835.300,200019.200,713184.200,0.000
192578.900,198267.700,205382.900,408067.700,97127.990,216825.300,199858.600,713174.600,0.000
192572.700,198266.200,205317.400,406561.600,97085.250,216830.400,199776.900,713148.600,0.000
192592.800,198282.900,205393.500,406071.200,97134.250,216840.400,199864.500,713148.400,0.000
192615.500,198287.500,205507.700,407518.600,97206.220,216842.600,200004.800,713177.500,0.000
192600.800,198278.200,205507.000,408453.800,97210.340,216829.900,200020.300,713192.700,0.000
192563.200,198240.700,205364.400,407858.200,97112.520,216805.100,199844.800,713177.800,0.000
192574.100,198261.700,205317.400,406344.000,97089.100,216829.300,199776.500,713153.900,0.000
192594.800,198287.900,205400.400,405819.700,97142.660,216844.800,199865.400,713151.600,0.000
192619.400,198298.900,205517.300,407199.500,97217.040,216848.200,200004.800,713185.000,0.000
192613.100,198300.600,205523.000,408097.300,97226.520,216845.200,200028.100,713201.800,0.000
192586.300,198274.200,205392.200,407489.400,97138.540,216837.300,199869.500,713188.300,0.000
192575.900,198271.800,205324.800,405969.200,97093.930,216837.800,199781.200,713160.900,0.000
192607.500,198299.000,205407.000,405459.200,97150.340,216855.100,199874.100,713161.400,0.000
192628.300,198310.900,205518.300,406798.300,97219.190,216856.900,200006.100,713190.400,0.000
192620.900,198313.900,205526.300,407679.800,97229.110,216852.300,200027.500,713202.600,0.000
192595.300,198288.000,205399.700,407099.000,97146.320,216847.500,199875.900,713189.300,0.000
192595.800,198296.500,205346.200,405661.500,97115.300,216863.100,199806.600,713167.900,0.000
192620.500,198315.000,205423.400,405210.900,97164.290,216870.000,199891.900,713168.200,0.000
192641.300,198329.600,205532.100,406518.900,97232.950,216876.200,200024.900,713195.600,0.000
192625.100,198320.100,205533.200,407407.200,97239.300,216868.800,200046.900,713210.300,0.000
192602.200,198290.700,205405.100,406855.200,97153.120,216854.400,199887.300,713197.400,0.000
192606.900,198298.800,205358.100,405486.500,97122.980,216864.100,199815.300,713173.400,0.000
192630.600,198321.300,205433.700,405081.200,97170.910,216871.500,199894.100,713171.900,0.000
192654.900,198335.900,205537.100,406293.000,97237.520,216876.100,200014.400,713198.700,0.000
192660.600,198350.900,205561.300,407157.600,97263.450,216885.700,200054.600,713217.300,0.000
192630.900,198322.600,205434.800,406625.600,97179.400,216877.500,199905.000,713204.300,0.000
192620.200,198322.400,205379.300,405332.600,97142.830,216880.300,199833.000,713178.800,0.000
192642.600,198347.300,205453.800,404968.900,97194.240,216896.000,199916.600,713180.800,0.000
192674.100,198362.400,205556.400,406047.000,97262.190,216905.700,200033.600,713202.400,0.000
192664.800,198354.000,205565.500,406847.500,97273.270,216897.400,200059.400,713212.900,0.000
192638.300,198324.000,205440.200,406325.800,97188.430,216888.500,199910.600,713202.300,0.000
192640.300,198332.300,205395.100,405100.000,97160.090,216896.500,199850.900,713181.100,0.000
192667.600,198360.100,205469.700,404757.600,97211.770,216914.000,199933.700,713179.300,0.000
192694.000,198381.700,205562.900,405696.000,97271.400,216925.200,200041.500,713201.200,0.000
192695.900,198394.000,205587.500,406454.100,97297.510,216933.100,200084.000,713213.900,0.000
192677.500,198374.300,205473.500,405945.500,97224.550,216931.600,199943.700,713203.000,0.000
192657.900,198355.900,205414.000,404772.800,97179.220,216918.100,199867.700,713179.100,0.000
192673.900,198373.800,205477.200,404471.500,97218.830,216928.300,199938.200,713180.900,0.000
192694.000,198385.900,205557.700,405321.500,97269.970,216935.700,200033.300,713202.100,0.000
192708.100,198407.500,205595.600,406059.900,97304.480,216949.500,200082.400,713216.800,0.000
192685.900,198380.500,205479.000,405559.400,97224.910,216938.700,199938.200,713203.800,0.000
192673.000,198367.100,205427.700,404452.800,97184.320,216924.700,199868.900,713181.200,0.000
192696.100,198389.400,205495.700,404188.500,97231.340,216939.300,199944.300,713180.400,0.000
192724.200,198409.600,205576.200,404941.000,97283.910,216950.600,200035.400,713194.500,0.000
192717.200,198410.900,205598.500,405654.100,97302.780,216946.700,200077.900,713210.100,0.000
192682.000,198377.500,205478.100,405191.400,97222.130,216936.000,199938.600,713201.800,0.000
192684.700,198383.200,205444.800,404168.400,97202.200,216944.200,199892.200,713185.800,0.000
192689.200,198389.500,205491.800,403921.800,97230.800,216940.600,199949.200,713182.300,0.000
192713.400,198408.600,205567.600,404617.800,97281.860,216950.900,200034.400,713201.000,0.000
192703.600,198404.000,205587.600,405311.400,97298.760,216944.200,200074.300,713214.300,0.000
192684.900,198379.500,205473.800,404843.800,97221.240,216931.600,199929.200,713199.700,0.000
192689.600,198388.200,205446.000,403873.600,97206.580,216943.700,199891.200,713185.600,0.000
192704.500,198402.600,205502.000,403680.900,97245.830,216951.500,199955.900,713188.300,0.000
192723.500,198416.500,205566.200,404297.000,97284.630,216957.000,200028.700,713200.400,0.000
192714.100,198416.200,205590.400,404977.900,97304.030,216953.900,200074.500,713213.000,0.000
192678.400,198377.600,205466.600,404544.300,97215.970,216933.400,199927.300,713202.800,0.000
192691.600,198398.200,205450.800,403644.700,97210.340,216956.100,199901.900,713193.600,0.000
192712.800,198417.000,205512.500,403485.800,97255.750,216969.600,199973.800,713196.900,0.000
192731.300,198428.300,205574.500,404052.800,97298.130,216978.800,200046.200,713213.600,0.000
192741.700,198442.900,205618.800,404723.200,97337.650,216989.200,200111.300,713228.400,0.000
192701.700,198395.700,205489.300,404279.500,97243.330,216956.100,199955.800,713212.200,0.000
192689.800,198388.500,205449.800,403389.000,97214.000,216951.900,199909.900,713199.100,0.000
192690.700,198392.000,205488.500,403229.900,97235.190,216946.800,199958.500,713199.900,0.000
192705.600,198401.200,205539.800,403724.200,97265.680,216951.200,200016.200,713209.000,0.000
192708.600,198415.500,205578.800,404377.700,97298.400,216958.500,200074.800,713221.500,0.000
192681.300,198393.100,205468.800,403974.500,97223.480,216947.700,199940.000,713208.900,0.000
192667.500,198379.100,205431.600,403149.000,97197.020,216943.600,199898.000,713198.300,0.000
192676.900,198382.700,205477.600,403051.100,97227.050,216941.900,199949.400,713201.100,0.000
192697.400,198393.100,205530.500,403543.000,97256.730,216943.400,200001.800,713213.700,0.000
192711.500,198414.100,205578.200,404226.000,97296.160,216956.400,200070.400,713231.900,0.000
192698.700,198399.800,205480.200,403882.400,97233.130,216955.800,199948.800,713226.300,0.000
192697.800,198403.300,205456.400,403119.100,97218.470,216959.800,199915.200,713215.600,0.000
192706.000,198413.000,205504.700,403062.200,97250.030,216964.500,199971.000,713219.500,0.000
192713.200,198417.000,205544.600,403510.500,97267.110,216959.500,200008.300,713230.900,0.000
192714.300,198426.500,205583.600,404189.400,97299.920,216964.700,200071.200,713246.800,0.000
192686.900,198397.900,205475.800,403865.100,97230.360,216962.800,199951.900,713242.900,0.000
192681.300,198392.700,205445.700,403137.400,97210.340,216961.200,199920.500,713233.200,0.000
192690.700,198397.300,205489.000,403091.000,97237.960,216958.000,199968.500,713236.900,0.000
192705.800,198404.900,205532.600,403498.200,97261.380,216958.200,200010.900,713246.000,0.000
192709.000,198411.800,205572.700,404159.600,97291.430,216955.400,200071.400,713261.600,0.000
192695.500,198394.500,205475.800,403837.800,97228.390,216956.400,199958.500,713256.400,0.000
192698.000,198402.200,205458.900,403144.800,97220.170,216965.200,199939.500,713248.400,0.000
192702.600,198411.100,205502.200,403138.600,97249.670,216968.300,199995.500,713252.300,0.000
192711.400,198415.500,205539.300,403542.900,97269.610,216968.000,200036.400,713265.000,0.000
192698.600,198407.600,205565.300,404196.400,97290.710,216957.600,200091.800,713279.000,0.000
192669.000,198374.700,205450.900,403869.800,97212.480,216943.300,199964.400,713269.500,0.000
192679.500,198388.700,205439.500,403173.100,97207.830,216957.000,199948.100,713262.400,0.000
192695.400,198403.500,205491.600,403144.800,97242.070,216964.100,200007.400,713269.300,0.000
192709.900,198406.100,205527.500,403480.400,97258.520,216961.500,200037.700,713276.300,0.000
192708.300,198409.400,205564.500,404109.400,97289.280,216958.800,200099.400,713287.800,0.000
192683.500,198385.400,205463.100,403793.700,97224.370,216953.100,199982.100,713283.600,0.000
192694.200,198403.100,205456.700,403119.700,97226.880,216971.400,199969.100,713277.600,0.000
192702.800,198412.100,205500.300,403097.100,97253.790,216968.300,200013.300,713277.600,0.000
192703.700,198401.700,205524.200,403426.400,97257.540,216954.800,200032.800,713280.900,0.000
192704.600,198411.300,205569.600,404092.700,97293.300,216960.300,200107.000,713298.100,0.000
192672.400,198376.000,205458.000,403814.500,97217.130,216940.600,199981.000,713292.800,0.000
192673.700,198380.600,205440.500,403189.200,97207.380,216945.900,199961.500,713285.700,0.000
192681.500,198383.900,205480.700,403227.800,97231.790,216942.700,200010.400,713288.000,0.000
192705.700,198395.000,205524.800,403625.900,97257.010,216951.300,200049.500,713299.800,0.000
192718.200,198415.300,205578.900,404354.100,97303.590,216960.400,200127.000,713316.400,0.000
192683.200,198378.800,205465.900,404141.400,97226.340,216939.000,200000.200,713307.100,0.000
192688.900,198391.100,205454.700,403599.600,97224.640,216953.100,199992.300,713303.000,0.000
192713.800,198419.100,205518.200,403760.000,97271.580,216971.000,200064.000,713313.600,0.000
192710.300,198408.200,205536.500,404236.600,97272.020,216954.400,200079.200,713320.400,0.000
192700.000,198403.800,205572.000,405059.500,97301.260,216947.000,200147.400,713335.100,0.000
192676.600,198383.300,205478.100,404993.000,97241.900,216941.500,200042.900,713336.600,0.000
192667.000,198379.300,205455.000,404562.900,97230.180,216941.000,200029.400,713332.300,0.000
192681.900,198393.900,205508.300,404834.400,97269.430,216953.200,200096.100,713341.300,0.000
192704.500,198405.800,205550.000,405451.100,97291.160,216958.800,200127.900,713356.800,0.000
192701.000,198408.100,205590.100,406379.000,97322.540,216951.000,200192.800,713371.900,0.000
192677.900,198383.300,205490.900,406373.000,97256.290,216939.100,200075.800,713367.500,0.000
192675.000,198387.200,205472.700,405969.300,97246.730,216944.300,200062.300,713359.400,0.000
192681.800,198395.400,205519.700,406217.400,97274.880,216949.000,200117.000,713367.900,0.000
192687.900,198388.600,205547.900,406763.600,97279.180,216937.600,200125.300,713383.900,0.000
192687.500,198396.000,205594.000,407602.300,97316.100,216936.800,200193.200,713397.200,0.000
192677.400,198387.500,205506.800,407496.100,97262.190,216941.000,200087.300,713393.100,0.000
192668.400,198384.500,205479.200,406971.800,97242.700,216938.400,200055.200,713384.100,0.000
192671.200,198380.100,205511.300,407092.000,97259.590,216928.900,200091.300,713385.400,0.000
192696.100,198391.000,205547.200,407546.600,97274.170,216934.300,200111.100,713392.300,0.000
192708.100,198410.400,205599.500,408321.600,97318.430,216947.500,200189.800,713408.500,0.000
192697.300,198396.900,205508.100,408137.100,97260.400,216948.500,200080.200,713403.000,0.000
192687.900,198394.200,205481.300,407510.100,97244.220,216947.400,200052.200,713390.200,0.000
192691.800,198396.000,205523.200,407534.300,97268.090,216943.700,200090.700,713388.100,0.000
192708.800,198401.300,205562.300,407931.300,97284.360,216947.900,200106.500,713395.000,0.000
192694.900,198398.900,205598.200,408615.100,97313.150,216942.600,200171.300,713405.100,0.000
192667.500,198378.800,205497.900,408359.600,97250.030,216936.400,200057.900,713396.600,0.000
192673.900,198390.100,205481.500,407684.000,97246.550,216951.900,200045.300,713390.500,0.000
192685.800,198393.900,205521.100,407644.500,97265.950,216943.700,200082.500,713389.800,0.000
192704.100,198391.800,205548.000,407999.900,97267.550,216933.300,200087.100,713391.100,0.000
192711.800,198402.400,205592.100,408682.900,97304.840,216935.300,200159.800,713401.800,0.000
192697.400,198384.200,205496.000,408417.700,97242.070,216930.200,200048.400,713394.900,0.000
192704.000,198393.700,205481.400,407719.200,97237.340,216943.700,200037.300,713383.100,0.000
192727.400,198417.400,205542.800,407706.800,97282.660,216962.700,200106.300,713388.800,0.000
192729.000,198407.800,205568.700,408115.100,97282.580,216949.300,200112.900,713395.600,0.000
192712.500,198407.400,205604.200,408842.200,97314.410,216945.200,200185.500,713407.800,0.000
192695.900,198400.300,205516.800,408628.200,97268.800,216955.700,200094.600,713404.300,0.000
192687.400,198407.600,205493.500,407953.900,97262.190,216965.900,200082.900,713392.700,0.000
192690.700,198407.500,205533.900,407964.100,97286.150,216954.000,200128.000,713394.800,0.000
192717.500,198420.700,205580.700,408455.300,97306.000,216958.000,200150.300,713405.800,0.000
192722.000,198431.700,205629.800,409232.200,97345.250,216959.600,200225.500,713419.900,0.000
192710.300,198418.100,205538.400,409033.600,97288.560,216959.900,200123.800,713416.700,0.000
192709.400,198418.000,205512.200,408347.400,97275.960,216964.700,200108.400,713406.800,0.000
192717.500,198415.700,205552.800,408339.800,97297.150,216955.300,200151.900,713409.100,0.000
192727.500,198410.700,205585.900,408824.400,97304.300,216949.500,200166.600,713414.300,0.000
192713.600,198409.200,205624.800,409591.000,97338.370,216946.600,200240.200,713427.400,0.000
192679.900,198378.800,205517.100,409350.900,97267.910,216927.800,200121.600,713421.300,0.000
192680.400,198393.600,205497.300,408617.900,97264.250,216940.300,200108.200,713413.000,0.000
192700.400,198415.300,205553.500,408558.800,97304.390,216954.500,200169.900,713419.700,0.000
192723.400,198421.500,205594.800,409023.000,97319.140,216958.600,200187.500,713428.800,0.000
192731.600,198434.900,205643.100,409746.700,97358.300,216964.900,200263.400,713440.800,0.000
192704.400,198405.000,205531.900,409432.200,97284.090,216949.000,200138.300,713431.400,0.000
192707.200,198408.200,205502.300,408590.000,97270.860,216953.100,200109.600,713420.600,0.000
192725.300,198419.900,205552.300,408421.500,97300.450,216956.600,200154.700,713421.300,0.000
192737.600,198411.900,205584.700,408815.900,97299.380,216946.800,200153.900,713426.500,0.000
192734.900,198416.700,205626.000,409460.300,97331.300,216946.400,200217.500,713437.100,0.000
192701.500,198387.800,205517.200,409067.300,97261.920,216936.300,200095.900,713426.400,0.000
192688.500,198389.500,205481.800,408138.500,97243.150,216939.400,200063.900,713408.600,0.000
192695.700,198402.700,205527.700,407917.800,97271.040,216943.600,200108.700,713406.800,0.000
192720.700,198414.800,205576.300,408336.800,97288.300,216950.800,200128.000,713416.900,0.000
192739.900,198440.100,205636.100,409020.800,97339.700,216966.300,200212.700,713436.300,0.000
192713.900,198414.200,205527.500,408631.500,97270.690,216956.100,200095.800,713425.900,0.000
192708.200,198410.000,205491.000,407682.800,97249.050,216955.400,200063.100,713405.400,0.000
192724.600,198415.900,205537.500,407452.100,97275.060,216951.200,200107.900,713402.200,0.000
192748.900,198418.900,205584.000,407892.900,97290.980,216949.300,200127.200,713409.300,0.000
192745.200,198420.600,205625.200,408556.000,97323.340,216942.700,200191.200,713417.400,0.000
192708.500,198388.500,205513.900,408149.700,97249.130,216929.800,200069.000,713403.900,0.000
192695.800,198390.600,205477.200,407191.600,97231.260,216938.200,200043.600,713390.900,0.000
192701.000,198405.000,205522.800,406941.100,97262.810,216946.000,200095.800,713388.300,0.000
192715.500,198408.000,205564.800,407400.400,97277.300,216947.800,200117.100,713397.400,0.000
192716.500,198418.000,205606.800,408091.600,97313.510,216952.300,200193.500,713412.000,0.000
192690.000,198389.100,205496.600,407698.000,97238.680,216933.400,200067.300,713399.900,0.000
192688.900,198391.500,205464.200,406726.700,97222.590,216935.800,200037.000,713381.100,0.000
192709.900,198409.400,205521.200,406486.900,97262.990,216947.900,200097.700,713379.600,0.000
192738.000,198421.500,205575.200,406975.500,97286.150,216954.700,200121.300,713389.300,0.000
192742.600,198434.100,205626.200,407682.300,97328.350,216963.500,200200.100,713401.800,0.000
192727.200,198423.500,205535.600,407298.300,97276.310,216969.600,200098.700,713394.300,0.000
192719.300,198427.300,205501.600,406294.700,97260.940,216979.400,200069.900,713378.300,0.000
192719.800,198431.100,205542.000,406013.000,97282.220,216978.300,200115.500,713373.900,0.000
192742.600,198436.600,205588.400,406498.500,97297.410,216979.100,200133.700,713382.000,0.000
192747.800,198447.100,205633.000,407190.800,97336.580,216979.700,200206.000,713392.400,0.000
192729.900,198429.700,205532.900,406780.200,97276.230,216971.800,200090.400,713379.000,0.000
192721.500,198424.700,205490.200,405745.800,97249.850,216967.000,200043.400,713356.900,0.000
192752.400,198455.900,205557.300,405457.900,97299.650,216993.800,200115.100,713355.000,0.000
192780.600,198466.300,205611.500,405949.200,97324.060,216997.100,200141.800,713366.700,0.000
192778.200,198470.400,205652.900,406629.800,97357.590,216992.700,200206.100,713376.800,0.000
192744.600,198440.200,205543.000,406204.000,97284.720,216978.900,200083.400,713365.600,0.000
192731.800,198435.000,205500.000,405154.700,97259.690,216979.900,200045.700,713348.400,0.000
192751.100,198452.800,205556.600,404855.100,97299.920,216993.300,200106.100,713346.400,0.000
192770.300,198457.200,205602.600,405359.100,97313.330,216992.600,200125.300,713350.800,0.000
192772.500,198471.500,205649.800,406080.300,97352.490,216997.500,200201.200,713364.600,0.000
192747.200,198447.600,205544.500,405680.400,97286.060,216988.900,200084.500,713352.500,0.000
192740.700,198449.600,205506.300,404644.600,97267.910,216993.700,200050.900,713333.100,0.000
192760.700,198468.200,205563.900,404358.600,97306.800,217006.400,200110.800,713332.300,0.000
192778.300,198466.900,205608.900,404901.600,97319.680,217000.400,200130.300,713342.200,0.000
192791.700,198485.800,205665.500,405654.600,97365.450,217013.900,200212.800,713356.300,0.000
192762.300,198456.400,205555.100,405266.200,97290.090,216996.100,200088.000,713340.800,0.000
192751.800,198455.700,205511.900,404228.000,97265.590,216997.200,200046.900,713322.300,0.000
192760.200,198466.000,205561.000,403941.600,97298.940,217000.600,200103.200,713322.400,0.000
192774.400,198464.600,205607.100,404500.700,97315.920,216999.200,200130.400,713330.300,0.000
192768.400,198467.900,205647.100,405256.200,97351.150,216999.300,200203.200,713342.400,0.000
192737.600,198439.300,205537.200,404882.000,97281.590,216989.800,200084.900,713330.800,0.000
192740.500,198449.600,205504.500,403859.000,97271.040,217005.000,200056.800,713315.900,0.000
192767.400,198471.500,205566.400,403590.600,97312.520,217016.800,200118.800,713315.800,0.000
192788.300,198471.400,205612.200,404172.600,97321.550,217006.700,200132.800,713325.000,0.000
192783.700,198472.200,205650.500,404952.500,97348.650,216996.600,200194.800,713334.100,0.000
192758.900,198450.000,205546.600,404611.900,97283.650,216985.900,200077.500,713323.800,0.000
192750.100,198451.600,205506.800,403611.100,97267.910,216994.400,200045.300,713307.400,0.000
192759.800,198464.500,205559.600,403350.500,97304.390,217003.400,200107.700,713305.800,0.000
192781.100,198474.200,205613.700,403952.800,97327.010,217010.200,200140.600,713314.900,0.000
192778.300,198483.100,205656.700,404759.300,97360.980,217010.800,200211.600,713330.300,0.000
192752.200,198457.000,205549.300,404432.600,97290.710,217002.000,200092.700,713322.800,0.000
192752.000,198458.300,205508.100,403422.400,97267.730,217008.900,200053.300,713309.300,0.000
192778.200,198480.500,205567.300,403157.400,97306.540,217020.800,200114.100,713311.800,0.000
192800.300,198480.600,205613.800,403756.400,97318.250,217011.700,200131.000,713320.100,0.000
192811.300,198494.200,205667.200,404559.500,97360.720,217016.900,200206.900,713333.500,0.000
192785.700,198470.000,205560.500,404211.100,97293.210,217005.300,200087.500,713319.100,0.000
192770.800,198462.000,205509.400,403168.300,97262.990,217002.900,200037.700,713296.100,0.000
192779.400,198473.200,205563.200,402888.600,97297.410,217007.600,200094.300,713291.900,0.000
192795.300,198476.600,205614.400,403505.200,97316.550,217009.500,200122.300,713304.800,0.000
192790.700,198482.100,205651.100,404304.900,97348.200,217008.200,200191.400,713318.300,0.000
192760.900,198455.200,205538.300,403968.400,97274.440,216995.500,200071.700,713311.500,0.000
192757.300,198459.000,205495.400,402941.100,97252.710,217003.500,200032.100,713296.300,0.000
192773.800,198470.800,205548.400,402657.400,97287.410,217005.900,200087.600,713294.700,0.000
192800.000,198476.000,205603.300,403279.000,97307.970,217004.700,200114.100,713304.900,0.000
192808.700,198493.400,205656.900,404097.300,97354.910,217015.300,200193.500,713320.000,0.000
192780.900,198468.400,205553.600,403782.100,97291.430,217008.000,200080.600,713311.400,0.000
192774.100,198473.700,205513.900,402778.300,97271.580,217012.000,200040.700,713294.800,0.000
192788.300,198488.900,205571.800,402525.200,97308.590,217021.500,200103.000,713294.000,0.000
192805.600,198490.600,205622.000,403176.600,97324.950,217018.700,200129.100,713304.900,0.000
192804.500,198500.800,205667.300,404034.000,97362.330,217024.400,200206.600,713321.900,0.000
192775.100,198474.800,205560.200,403756.300,97292.950,217013.000,200093.700,713314.600,0.000
192757.100,198463.400,205503.400,402772.700,97256.730,217002.500,200041.300,713298.600,0.000
192771.300,198475.400,205555.000,402534.900,97290.270,217007.600,200100.800,713296.300,0.000
192794.000,198479.800,205608.700,403207.400,97308.860,217004.900,200127.500,713307.700,0.000
192803.800,198496.000,205663.900,404085.200,97354.280,217011.800,200205.900,713324.300,0.000
192785.000,198474.700,205564.500,403818.200,97293.210,217003.800,200092.000,713315.200,0.000
192775.500,198469.500,205515.300,402837.400,97265.320,217004.000,200042.900,713295.900,0.000
192788.300,198484.200,205569.500,402597.300,97300.550,217007.700,200100.100,713295.200,0.000
192804.900,198485.700,205621.700,403267.900,97320.480,217011.800,200133.900,713307.900,0.000
192805.900,198496.700,205669.300,404138.400,97359.820,217019.000,200213.300,713323.700,0.000
192782.500,198474.500,205568.600,403865.900,97296.520,217011.700,200104.100,713316.300,0.000
192773.200,198473.800,205520.900,402875.400,97271.760,217019.700,200065.300,713302.700,0.000
192776.100,198477.600,205562.800,402606.600,97297.410,217019.600,200121.700,713300.200,0.000
192794.500,198479.400,205609.500,403263.300,97312.440,217016.600,200148.600,713312.100,0.000
192795.500,198484.600,205649.800,404111.300,97345.070,217014.100,200217.400,713327.800,0.000
192771.100,198462.000,205544.800,403818.500,97280.610,217007.400,200104.800,713317.700,0.000
192763.400,198464.600,205502.000,402817.200,97259.060,217012.500,200060.300,713300.400,0.000
192777.800,198482.200,205559.600,402544.300,97297.870,217020.300,200120.700,713298.100,0.000
192802.000,198490.500,205619.400,403197.200,97323.610,217023.000,200152.500,713308.200,0.000
192803.400,198498.300,205669.000,404063.400,97360.270,217020.200,200219.500,713322.900,0.000
192775.600,198473.300,205566.000,403782.100,97293.040,217008.100,200100.800,713312.500,0.000
192767.200,198473.400,205519.500,402783.600,97266.840,217012.000,200055.400,713295.100,0.000
192785.200,198489.800,205575.900,402525.800,97306.000,217024.000,200120.100,713297.100,0.000
192798.300,198486.500,205618.200,403183.300,97315.210,217016.100,200140.400,713309.600,0.000
192803.300,198493.900,205666.100,404062.700,97349.270,217012.300,200208.800,713326.100,0.000
192783.000,198473.100,205566.200,403796.900,97284.720,216999.600,200094.600,713318.700,0.000
192774.600,198469.500,205517.200,402800.200,97257.010,216998.100,200046.300,713300.400,0.000
192794.000,198484.800,205575.800,402539.000,97296.340,217008.800,200111.600,713301.000,0.000
192816.800,198489.400,205631.200,403208.700,97315.840,217009.800,200141.500,713312.900,0.000
192816.700,198497.600,205676.500,404099.000,97355.090,217012.400,200219.600,713330.000,0.000
192793.400,198479.600,205574.700,403844.700,97296.700,217011.800,200116.000,713324.900,0.000
192781.800,198479.800,205525.900,402857.800,97274.260,217020.200,200075.500,713307.500,0.000
192793.700,198495.400,205579.200,402596.400,97312.880,217030.400,200140.900,713305.400,0.000
192812.100,198502.100,205633.800,403265.500,97334.700,217034.200,200174.500,713319.200,0.000
192814.600,198513.100,205685.100,404152.600,97373.950,217034.300,200249.600,713334.600,0.000
192797.000,198497.300,205590.500,403892.800,97316.730,217033.700,200145.900,713328.100,0.000
192788.500,198495.700,205540.100,402894.300,97290.800,217040.100,200099.000,713311.400,0.000
192795.300,198503.700,205584.200,402612.400,97318.780,217042.500,200155.300,713310.700,0.000
192817.500,198508.200,205636.600,403273.600,97335.950,217041.400,200183.000,713323.800,0.000
192817.600,198509.700,205680.200,404154.300,97371.090,217039.000,200254.500,713335.200,0.000
192788.000,198479.700,205571.200,403887.000,97301.530,217024.000,200137.300,713326.800,0.000
192783.500,198485.400,205530.000,402890.500,97280.520,217033.800,200096.700,713312.300,0.000
192798.600,198507.300,205590.200,402613.200,97321.380,217045.400,200160.600,713312.700,0.000
192821.200,198513.100,205646.700,403274.900,97342.030,217042.900,200185.300,713324.100,0.000
192822.500,198517.900,205694.800,404162.100,97375.470,217038.200,200256.300,713337.100,0.000
192799.400,198498.100,205593.400,403906.000,97312.340,217030.700,200146.300,713332.400,0.000
192797.500,198504.600,205547.800,402908.900,97289.190,217040.200,200101.800,713320.000,0.000
192791.200,198501.500,205580.300,402610.200,97308.150,217035.300,200150.500,713314.500,0.000
192804.900,198498.300,205622.500,403263.200,97321.550,217030.800,200176.500,713324.900,0.000
192805.000,198505.900,205670.100,404160.400,97361.340,217030.000,200252.500,713338.000,0.000
192776.400,198477.500,205566.000,403904.900,97297.410,217018.100,200140.900,713330.200,0.000
192762.700,198469.700,205513.600,402891.700,97265.860,217015.200,200086.000,713309.800,0.000
192783.900,198494.000,205578.800,402617.000,97312.620,217032.400,200157.600,713311.700,0.000
192812.200,198507.500,205642.200,403289.100,97342.030,217042.700,200197.100,713326.200,0.000
192819.700,198522.000,205696.000,404199.100,97385.930,217050.600,200280.500,713342.300,0.000
192794.600,198500.800,205594.300,403960.800,97324.060,217047.400,200173.600,713335.900,0.000
192780.900,198495.500,205538.100,402966.900,97291.430,217049.600,200121.400,713320.200,0.000
192784.800,198501.600,205581.900,402692.900,97320.480,217051.700,200179.900,713317.000,0.000
192804.200,198505.300,205632.200,403367.600,97337.910,217050.700,200210.000,713329.700,0.000
192799.700,198503.800,205672.900,404270.100,97367.420,217037.800,200272.500,713341.100,0.000
192775.700,198476.700,205567.700,404033.100,97297.690,217022.300,200150.700,713333.400,0.000
192776.800,198484.000,205525.500,403039.400,97274.980,217032.400,200102.700,713317.700,0.000
192802.600,198509.500,205594.000,402769.500,97321.910,217046.100,200170.000,713319.200,0.000
192828.400,198516.800,205651.200,403433.000,97344.000,217046.100,200196.400,713330.800,0.000
192824.300,198522.700,205693.900,404337.800,97378.870,217040.600,200267.500,713344.900,0.000
192794.400,198495.700,205586.300,404098.200,97313.950,217032.000,200157.600,713338.200,0.000
192784.700,198494.100,205533.900,403085.700,97287.760,217041.100,200112.700,713320.600,0.000
192785.400,198499.000,205577.300,402784.000,97316.020,217040.300,200168.500,713318.100,0.000
192801.100,198500.300,205625.000,403433.300,97332.110,217038.400,200192.800,713331.000,0.000
192804.400,198511.500,205676.700,404343.600,97374.840,217043.900,200272.600,713346.900,0.000
192776.700,198485.800,205573.100,404107.200,97307.700,217031.000,200156.500,713340.800,0.000
192763.500,198476.400,205513.800,403085.300,97268.540,217021.500,200092.800,713322.300,0.000
192785.400,198495.900,205574.500,402798.000,97308.410,217030.300,200159.200,713322.300,0.000
192814.300,198506.000,205634.700,403456.900,97333.450,217034.500,200188.600,713334.700,0.000
192821.800,198521.200,205691.000,404367.900,97379.670,217042.500,200270.200,713348.400,0.000
192791.800,198498.500,205584.900,404129.800,97314.760,217035.700,200159.400,713338.900,0.000
192779.600,198490.300,205524.000,403112.100,97280.430,217035.700,200101.000,713325.100,0.000
192792.500,198504.200,205577.400,402811.100,97318.250,217045.400,200167.100,713324.300,0.000
192808.800,198507.300,205626.600,403449.400,97333.000,217042.400,200190.600,713334.900,0.000
192800.100,198504.600,205663.900,404334.700,97357.680,217031.800,200254.100,713348.200,0.000
192782.100,198490.300,205570.400,404095.700,97299.740,217032.100,200151.500,713342.800,0.000
192777.200,198492.000,205521.900,403058.800,97272.920,217037.700,200099.000,713324.500,0.000
192793.400,198505.100,205579.500,402732.800,97309.130,217039.700,200157.500,713322.000,0.000
192818.500,198511.700,205635.700,403360.400,97327.630,217038.200,200178.900,713330.800,0.000
192826.400,198525.900,205693.100,404254.200,97372.700,217043.000,200257.300,713346.400,0.000
192799.800,198503.500,205591.200,404012.100,97311.630,217038.000,200149.700,713341.300,0.000
192791.500,198500.800,205531.800,402965.200,97280.700,217045.800,200096.800,713323.800,0.000
192803.600,198511.400,205581.800,402636.600,97315.560,217047.700,200159.300,713324.100,0.000
192816.500,198506.700,205625.300,403251.700,97326.920,217038.800,200179.600,713333.900,0.000
192814.300,198513.100,205674.300,404145.800,97364.470,217037.600,200256.600,713347.300,0.000
192789.400,198493.900,205577.200,403913.100,97304.840,217031.600,200151.800,713341.200,0.000
192775.900,198489.300,205519.400,402867.500,97269.250,217030.800,200089.300,713323.100,0.000
192794.000,198508.400,205580.100,402543.600,97309.760,217042.400,200151.300,713322.000,0.000
192817.100,198515.400,205635.700,403163.900,97329.600,217043.900,200177.100,713332.600,0.000
192823.600,198529.000,205691.000,404052.900,97373.410,217047.400,200258.000,713347.100,0.000
192801.900,198509.400,205593.400,403810.100,97314.410,217046.100,200152.900,713338.800,0.000
192788.900,198500.000,205529.900,402753.200,97276.850,217045.900,200088.200,713318.100,0.000
192806.200,198512.700,205584.400,402420.900,97314.230,217053.000,200152.800,713318.100,0.000
192833.500,198522.100,205642.600,403042.700,97337.470,217059.200,200185.600,713331.400,0.000
192834.200,198527.700,205690.100,403925.400,97373.410,217052.100,200254.500,713341.800,0.000
192809.600,198503.400,205588.500,403685.800,97307.970,217036.200,200138.800,713333.700,0.000
192793.500,198498.300,205526.400,402636.600,97268.270,217033.000,200073.900,713317.100,0.000
192803.200,198512.000,205579.700,402296.700,97306.630,217045.200,200142.400,713316.700,0.000
192821.800,198520.400,205634.600,402893.200,97331.390,217051.700,200176.300,713326.600,0.000
192817.900,198526.800,205685.300,403760.200,97372.340,217053.000,200255.100,713336.400,0.000
192793.700,198506.200,205587.400,403512.300,97315.840,217046.800,200151.500,713329.500,0.000
192781.300,198497.800,205524.600,402445.800,97278.460,217044.000,200087.700,713309.600,0.000
192797.500,198512.500,205577.400,402092.100,97315.390,217051.500,200153.000,713308.200,0.000
192817.200,198511.100,205624.300,402667.100,97327.990,217044.700,200172.800,713317.500,0.000
192830.100,198524.500,205681.900,403533.400,97371.180,217049.900,200254.300,713333.300,0.000
192806.000,198499.200,205579.900,403276.700,97303.140,217034.700,200139.200,713324.600,0.000
192793.500,198493.200,205519.000,402206.300,97263.450,217031.800,200071.500,713305.100,0.000
192820.400,198522.500,205587.300,401855.900,97314.130,217050.300,200145.500,713306.700,0.000
192842.600,198533.800,205643.000,402433.700,97338.370,217056.200,200176.800,713318.500,0.000
192836.500,198540.500,205689.400,403301.100,97373.680,217053.700,200250.800,713332.600,0.000
192803.800,198512.600,205585.000,403055.500,97306.090,217040.200,200136.300,713326.300,0.000
192792.000,198510.000,205524.500,401988.700,97271.490,217044.800,200074.400,713307.500,0.000
192807.400,198525.900,205580.900,401627.600,97309.580,217050.400,200137.300,713302.900,0.000
192827.500,198525.200,205631.200,402200.100,97324.950,217047.300,200162.700,713312.900,0.000
192832.400,198531.000,205684.600,403074.500,97365.370,217048.100,200243.900,713330.400,0.000
192809.000,198506.400,205586.500,402833.300,97304.930,217038.500,200137.900,713322.300,0.000
192805.500,198510.400,205533.000,401766.600,97276.950,217049.300,200082.800,713304.800,0.000
192811.700,198519.800,205579.300,401388.400,97305.550,217047.900,200138.200,713300.800,0.000
192840.400,198533.500,205638.400,401957.200,97330.050,217055.400,200170.700,713314.500,0.000
192842.700,198544.400,205689.300,402811.500,97368.490,217059.000,200249.000,713327.900,0.000
192811.400,198516.000,205581.000,402551.700,97300.010,217046.700,200136.500,713320.000,0.000
192802.500,198512.700,205518.900,401473.900,97265.770,217053.000,200079.100,713301.800,0.000
192808.200,198520.500,205565.000,401084.700,97296.520,217058.300,200141.800,713299.900,0.000
192829.000,198524.700,205615.900,401630.400,97313.330,217060.000,200169.700,713311.500,0.000
192832.400,198532.100,205668.300,402496.000,97352.230,217057.400,200247.900,713327.300,0.000
192806.700,198507.100,205566.700,402260.900,97289.820,217048.300,200139.500,713322.900,0.000
192801.100,198506.400,205508.800,401201.700,97255.750,217050.900,200074.700,713306.900,0.000
192813.800,198521.100,205561.400,400831.700,97291.880,217055.000,200137.400,713304.000,0.000
192819.500,198511.300,205598.300,401376.800,97298.400,217039.900,200152.300,713308.400,0.000
192824.800,198523.800,205655.700,402263.100,97345.340,217044.100,200238.300,713321.200,0.000
192806.300,198507.100,205565.200,402053.100,97289.640,217040.300,200136.300,713312.100,0.000
192788.800,198493.300,205499.100,401010.600,97246.900,217031.300,200063.000,713292.300,0.000
192794.900,198501.200,205546.700,400655.700,97278.730,217034.300,200123.600,713290.100,0.000
192822.300,198515.800,205607.000,401241.800,97308.500,217053.200,200168.500,713303.300,0.000
192824.000,198526.800,205662.300,402152.400,97352.400,217055.800,200253.600,713319.800,0.000
192786.400,198494.900,205553.700,401948.800,97281.320,217034.400,200132.800,713313.300,0.000
192780.700,198501.000,205500.000,400918.300,97252.530,217044.900,200074.900,713296.500,0.000
192799.200,198521.300,205560.400,400578.700,97293.210,217052.400,200141.500,713296.500,0.000
192821.100,198521.300,205611.400,401160.700,97309.130,217048.600,200166.200,713304.400,0.000
192818.100,198516.600,205658.500,402076.100,97343.020,217038.000,200242.000,713319.200,0.000
192794.200,198490.900,205560.600,401888.000,97284.270,217030.600,200138.800,713313.400,0.000
192786.100,198493.700,205505.500,400847.000,97253.790,217041.800,200078.200,713297.100,0.000
192798.800,198519.800,205564.900,400496.300,97297.410,217062.800,200153.800,713295.300,0.000
192822.100,198523.600,205617.500,401085.400,97320.750,217067.300,200188.900,713308.800,0.000
192823.700,198535.100,205668.300,402001.900,97361.160,217064.800,200267.300,713324.300,0.000
192791.800,198508.300,205562.200,401809.700,97290.090,217047.300,200151.800,713315.600,0.000
192779.900,198504.000,205498.200,400774.000,97250.300,217050.400,200083.400,713299.100,0.000
192794.700,198513.400,205555.100,400429.900,97289.460,217056.300,200149.800,713297.900,0.000
192824.000,198520.700,205614.100,401023.900,97313.780,217060.100,200182.000,713307.900,0.000
192826.800,198528.500,205668.800,401954.500,97352.230,217054.900,200258.300,713322.700,0.000
192797.400,198503.500,205568.200,401779.700,97287.580,217040.500,200146.300,713317.100,0.000
192792.700,198511.600,205514.400,400747.200,97260.850,217054.800,200088.000,713299.900,0.000
192801.800,198524.700,205566.700,400399.300,97298.130,217060.800,200151.600,713296.900,0.000
192822.300,198524.300,205616.900,400992.200,97313.780,217057.700,200177.800,713307.100,0.000
192831.700,198543.000,205682.600,401940.800,97368.950,217072.900,200277.300,713323.600,0.000
192810.900,198524.400,205593.200,401791.300,97315.920,217068.900,200178.500,713318.400,0.000
192795.600,198516.800,205526.900,400766.600,97271.580,217063.900,200102.000,713299.600,0.000
192803.600,198527.800,205577.700,400435.900,97306.360,217068.300,200164.600,713298.400,0.000
192818.800,198529.000,205623.500,401052.200,97323.440,217070.300,200193.600,713310.200,0.000
192815.300,198532.500,205672.700,402004.800,97362.050,217065.500,200274.500,713324.500,0.000
192789.800,198516.500,205576.100,401859.700,97303.850,217061.500,200173.100,713319.800,0.000
192777.600,198510.200,205508.900,400838.200,97263.530,217061.700,200100.000,713304.400,0.000
192795.300,198525.300,205566.400,400497.300,97302.340,217067.100,200164.900,713304.200,0.000
192818.900,198533.200,205620.700,401100.400,97323.340,217072.200,200195.500,713315.600,0.000
192819.900,198540.500,205674.800,402039.400,97364.560,217072.900,200277.700,713328.500,0.000
192791.400,198515.500,205574.600,401883.500,97299.920,217058.300,200166.900,713321.400,0.000
192786.000,198519.500,205516.900,400850.400,97266.750,217066.700,200100.900,713305.300,0.000
192791.800,198522.000,205564.900,400489.100,97297.230,217061.300,200159.300,713302.300,0.000
192811.800,198523.800,205615.000,401094.800,97314.490,217055.700,200184.900,713312.900,0.000
192813.200,198533.500,205671.500,402054.000,97355.270,217053.200,200265.300,713326.800,0.000
192795.100,198519.700,205582.800,401923.200,97302.520,217053.600,200169.100,713322.600,0.000
192787.100,198520.300,205518.900,400888.800,97267.290,217065.200,200102.000,713304.800,0.000
192802.800,198535.300,205577.100,400536.200,97309.930,217076.900,200173.900,713303.500,0.000
192828.500,198537.400,205632.600,401154.300,97329.880,217076.000,200202.000,713316.900,0.000
192837.600,198547.900,205690.900,402125.000,97372.160,217074.900,200281.300,713333.100,0.000
192816.100,198532.300,205595.900,401993.600,97315.210,217068.300,200181.600,713327.100,0.000
192801.500,198522.900,205525.500,400954.500,97272.830,217071.000,200109.800,713308.300,0.000
192809.600,198530.300,205574.200,400587.300,97307.700,217072.600,200174.100,713306.500,0.000
192831.500,198533.900,205625.600,401204.100,97327.460,217072.600,200203.000,713316.400,0.000
192833.500,198541.600,205683.300,402176.200,97371.710,217074.600,200287.300,713333.000,0.000
192802.000,198515.300,205583.500,402038.700,97306.890,217058.600,200175.900,713327.000,0.000
192782.300,198501.700,205508.600,400973.600,97257.630,217052.100,200090.300,713305.700,0.000
192797.500,198521.000,205565.300,400591.200,97297.690,217062.500,200158.600,713303.500,0.000
192831.500,198543.900,205632.100,401213.900,97333.180,217079.900,200204.000,713318.100,0.000
192834.200,198562.800,205692.800,402179.100,97379.850,217086.600,200291.400,713333.100,0.000
192803.100,198533.700,205592.100,402035.300,97316.910,217073.500,200182.500,713327.400,0.000
192793.000,198522.300,205522.000,400968.800,97274.880,217074.400,200106.700,713308.100,0.000
192800.500,198526.500,205569.500,400555.300,97305.910,217072.900,200164.900,713299.900,0.000
192829.100,198535.300,205629.500,401159.300,97333.180,217076.800,200202.300,713314.300,0.000
192836.400,198548.700,205689.700,402116.200,97378.870,217082.000,200288.500,713330.400,0.000
192810.000,198523.700,205595.000,401971.100,97320.480,217071.200,200184.200,713323.100,0.000
192798.100,198518.800,205526.100,400898.800,97277.840,217069.700,200103.900,713306.900,0.000
192808.400,198535.500,205578.300,400477.000,97312.620,217074.900,200166.600,713301.900,0.000
192826.400,198539.300,205626.800,401072.100,97326.740,217072.500,200192.000,713308.700,0.000
192830.600,198551.400,205684.600,402039.600,97370.640,217073.400,200277.100,713328.900,0.000
192808.000,198533.200,205591.400,401903.500,97315.740,217069.300,200181.300,713325.800,0.000
192788.100,198519.400,205512.300,400822.100,97268.180,217070.500,200104.500,713306.200,0.000
192789.600,198522.400,205556.700,400400.900,97296.970,217068.200,200162.900,713299.900,0.000
192816.300,198531.900,205615.400,401005.500,97321.650,217068.600,200197.100,713310.400,0.000
192828.600,198553.100,205681.800,401982.400,97373.230,217079.900,200288.200,713328.900,0.000
192807.400,198527.400,205589.700,401855.300,97316.100,217070.000,200184.400,713323.300,0.000
192797.900,198526.500,205521.300,400781.400,97273.370,217076.200,200107.700,713303.600,0.000
192809.700,198543.300,205573.800,400355.100,97309.040,217081.400,200171.000,713301.300,0.000
192826.400,198538.900,205621.600,400955.800,97321.470,217074.300,200195.700,713312.100,0.000
192830.300,198550.400,205679.900,401936.900,97365.900,217078.300,200282.300,713328.500,0.000
192802.000,198527.800,205582.600,401812.100,97308.320,217068.500,200180.800,713323.500,0.000
192795.000,198528.000,205514.200,400738.900,97269.520,217075.100,200106.100,713306.300,0.000
192807.900,198541.400,205566.500,400307.400,97306.800,217079.300,200171.300,713301.900,0.000
192834.500,198548.900,205624.200,400917.300,97326.020,217081.000,200202.700,713310.700,0.000
192844.500,198555.600,205685.000,401901.900,97366.980,217079.600,200284.000,713329.300,0.000
192828.900,198539.700,205598.200,401788.400,97312.620,217072.800,200185.000,713327.600,0.000
192820.000,198535.000,205527.700,400708.100,97269.250,217076.600,200104.900,713305.700,0.000
192823.300,198544.400,205575.500,400264.600,97300.100,217077.100,200165.900,713299.100,0.000
192840.000,198547.800,205628.400,400867.700,97319.410,217078.000,200197.700,713312.700,0.000
192838.600,198551.500,205680.600,401841.600,97359.910,217073.900,200276.600,713330.100,0.000
192812.900,198531.700,205586.100,401711.900,97303.410,217068.100,200178.300,713323.100,0.000
192806.900,198533.500,205518.000,400637.900,97265.230,217076.500,200103.400,713306.000,0.000
192812.200,198538.000,205562.800,400181.500,97294.550,217075.400,200158.500,713300.100,0.000
192835.500,198540.000,205618.500,400769.900,97314.230,217073.100,200187.900,713310.200,0.000
192840.000,198546.800,205677.000,401743.100,97354.550,217068.600,200268.400,713325.800,0.000
192817.400,198529.200,205588.800,401625.500,97301.260,217066.100,200173.800,713321.400,0.000
192804.300,198527.000,205517.400,400540.400,97262.100,217076.900,200099.100,713302.900,0.000
192818.800,198550.600,205575.400,400094.500,97306.980,217093.400,200174.900,713299.400,0.000
192829.300,198547.300,205618.400,400674.800,97319.320,217086.100,200199.600,713308.500,0.000
192834.100,198555.500,205674.900,401655.100,97360.900,217083.400,200282.500,713326.600,0.000
192803.200,198524.300,205571.600,401529.900,97291.880,217062.100,200172.400,713324.200,0.000
192788.100,198511.000,205491.200,400432.700,97238.140,217058.800,200083.600,713302.300,0.000
192810.500,198533.700,205553.000,399979.400,97282.750,217075.800,200156.800,713298.800,0.000
192827.700,198531.400,205605.900,400558.800,97299.650,217069.300,200182.300,713307.500,0.000
192829.800,198536.300,205666.500,401531.300,97339.520,217062.500,200260.700,713321.900,0.000
192802.900,198513.500,205572.300,401409.600,97278.280,217050.500,200156.200,713316.400,0.000
192795.300,198513.100,205501.900,400313.300,97237.880,217060.700,200080.700,713297.900,0.000
192811.800,198531.200,205556.800,399853.500,97280.970,217074.700,200152.700,713297.400,0.000
192834.700,198538.800,205611.200,400432.300,97305.460,217080.700,200189.000,713310.600,0.000
192837.000,198548.600,205671.200,401401.100,97351.590,217082.800,200277.700,713326.300,0.000
192814.000,198523.900,205578.400,401277.200,97294.470,217069.100,200176.000,713320.000,0.000
192795.400,198508.800,205496.200,400175.300,97238.950,217060.800,200084.500,713298.300,0.000
192807.200,198523.500,205549.700,399707.300,97274.170,217063.300,200147.700,713292.700,0.000
192828.200,198524.300,205602.700,400281.200,97291.160,217058.600,200173.500,713301.900,0.000
192834.100,198534.000,205662.500,401248.600,97335.230,217057.500,200258.700,713320.400,0.000
192813.100,198519.300,205575.400,401142.300,97282.930,217055.600,200166.200,713315.800,0.000
192801.900,198514.800,205503.400,400085.600,97236.170,217059.000,200080.100,713294.800,0.000
192812.500,198530.300,205555.300,399637.200,97275.240,217068.400,200147.500,713293.600,0.000
192829.700,198529.800,205603.100,400196.300,97293.210,217069.300,200177.500,713304.400,0.000
192835.000,198543.200,205663.800,401166.300,97337.200,217071.800,200262.600,713322.400,0.000
192811.500,198524.500,205580.400,401087.600,97285.080,217062.600,200170.900,713318.700,0.000
192802.000,198522.800,205510.500,400036.300,97244.580,217067.700,200090.000,713299.200,0.000
192813.100,198544.300,205563.300,399583.300,97286.060,217080.500,200159.800,713294.800,0.000
192837.800,198550.400,205618.200,400150.300,97308.150,217080.900,200192.300,713305.900,0.000
192844.300,198559.900,205679.300,401121.900,97351.060,217082.000,200276.900,713324.500,0.000
192817.300,198533.500,205587.300,401038.500,97292.770,217071.100,200180.400,713319.400,0.000
192805.200,198525.300,205511.600,399977.200,97245.650,217074.900,200098.500,713300.900,0.000
192809.500,198533.800,205554.700,399512.100,97276.850,217079.300,200161.700,713293.900,0.000
192822.000,198529.600,205597.700,400059.900,97290.630,217076.000,200188.300,713301.100,0.000
192838.200,198551.500,205670.800,401054.500,97345.250,217082.800,200283.000,713322.800,0.000
192809.300,198525.300,205578.000,400978.600,97288.660,217070.400,200185.500,713320.600,0.000
192797.900,198517.900,205501.300,399909.900,97241.540,217072.700,200099.300,713301.800,0.000
192810.600,198534.800,205556.100,399454.200,97277.840,217079.200,200166.700,713297.800,0.000
192834.200,198542.400,205614.900,400025.900,97302.780,217085.300,200201.400,713308.900,0.000
192839.100,198551.800,205674.900,401018.800,97345.160,217083.100,200284.200,713326.600,0.000
192807.600,198524.100,205575.900,400940.100,97282.220,217068.900,200182.000,713320.400,0.000
192804.200,198525.400,205505.300,399876.900,97243.410,217081.000,200106.100,713302.100,0.000
192808.200,198531.400,205546.700,399412.600,97272.300,217077.700,200162.700,713296.100,0.000
192816.700,198523.400,205585.800,399974.300,97279.710,217065.300,200180.800,713302.900,0.000
192822.600,198535.500,205648.900,400972.300,97325.310,217065.900,200268.400,713322.700,0.000
192799.800,198517.400,205561.800,400909.900,97273.100,217059.900,200177.200,713318.800,0.000
192789.100,198514.000,205487.200,399847.300,97230.540,217066.700,200095.300,713300.400,0.000
192804.900,198534.400,205546.700,399397.600,97272.920,217078.600,200166.100,713297.800,0.000
192824.300,198532.900,205596.200,399973.200,97288.920,217073.400,200189.900,713308.800,0.000
192827.400,198542.800,205657.200,400968.700,97332.290,217072.600,200276.300,713325.600,0.000
192796.600,198515.400,205564.200,400914.900,97274.260,217057.900,200178.800,713319.800,0.000
192778.500,198502.300,205481.500,399854.800,97223.210,217057.300,200090.000,713299.800,0.000
192788.400,198520.500,205533.400,399401.700,97261.740,217065.500,200158.200,713294.800,0.000
192814.100,198529.500,205591.000,399974.600,97284.990,217069.300,200189.800,713305.200,0.000
192826.800,198543.800,205659.700,400977.800,97333.360,217073.000,200278.400,713322.700,0.000
192814.000,198528.200,205580.000,400938.800,97286.330,217067.300,200189.000,713320.100,0.000
192802.200,198518.900,205502.600,399885.500,97235.550,217065.400,200097.900,713302.100,0.000
192808.800,198530.800,205552.900,399425.900,97269.700,217072.400,200163.400,713295.700,0.000
192823.000,198528.800,205598.600,399988.400,97283.470,217068.600,200187.400,713306.800,0.000
192821.600,198533.800,205653.800,400978.300,97322.450,217062.600,200269.200,713323.700,0.000
192793.200,198511.600,205563.100,400937.200,97268.630,217055.700,200181.600,713323.300,0.000
192773.700,198499.900,205477.200,399877.100,97215.250,217054.800,200089.900,713305.100,0.000
192788.800,198521.200,205534.400,399413.400,97259.420,217070.800,200165.100,713301.100,0.000
192808.300,198524.500,205585.100,399957.700,97278.730,217072.000,200192.200,713309.300,0.000
192805.900,198529.000,205637.900,400919.500,97314.850,217063.700,200265.000,713320.900,0.000
192789.500,198515.300,205559.100,400867.900,97268.450,217059.000,200179.300,713320.300,0.000
192792.000,198520.500,205494.000,399804.000,97228.300,217070.700,200100.300,713304.600,0.000
192806.800,198537.500,205546.500,399319.500,97265.230,217077.400,200166.900,713299.800,0.000
192837.700,198548.300,205606.000,399869.000,97292.590,217084.400,200201.300,713313.500,0.000
192851.800,198564.700,205675.200,400855.100,97344.800,217091.300,200293.500,713332.400,0.000
192814.500,198535.200,205580.100,400800.200,97282.300,217074.800,200198.100,713328.800,0.000
192791.500,198518.300,205490.800,399720.400,97223.920,217070.800,200100.500,713308.300,0.000
192792.300,198524.300,205533.400,399226.400,97253.430,217069.500,200158.800,713300.900,0.000
192796.100,198513.600,205569.400,399745.600,97258.620,217054.700,200171.800,713303.800,0.000
192798.800,198522.600,205628.900,400720.700,97304.130,217056.800,200256.500,713319.700,0.000
192784.600,198511.900,205551.900,400682.300,97261.200,217055.300,200175.400,713318.800,0.000
192771.200,198503.000,205469.200,399611.300,97209.710,217052.800,200082.200,713296.400,0.000
192796.300,198530.800,205534.700,399136.400,97257.090,217071.100,200159.200,713290.300,0.000
192828.200,198541.900,205595.000,399690.300,97281.410,217075.100,200190.100,713302.700,0.000
192831.300,198544.700,205652.500,400673.800,97320.130,217067.900,200267.600,713319.300,0.000
192806.000,198520.600,205563.500,400637.500,97264.780,217054.800,200174.900,713316.000,0.000
192786.000,198508.300,205477.600,399582.300,97212.300,217055.600,200085.500,713295.500,0.000
192795.900,198525.700,205531.000,399106.200,97254.410,217070.300,200159.500,713291.700,0.000
192813.100,198528.600,205580.000,399653.100,97273.270,217071.300,200190.100,713301.100,0.000
192818.400,198539.300,205641.300,400648.100,97318.520,217071.600,200276.700,713319.700,0.000
192796.600,198523.600,205561.000,400629.900,97270.950,217066.700,200192.400,713320.400,0.000
192779.300,198508.400,205476.900,399576.300,97214.630,217058.200,200091.100,713302.300,0.000
192797.200,198529.600,205534.700,399097.200,97256.830,217071.000,200162.800,713298.800,0.000
192815.500,198529.800,205583.300,399634.000,97271.490,217068.200,200187.200,713308.600,0.000
192816.400,198531.700,205639.200,400616.900,97307.430,217061.500,200265.500,713321.600,0.000
192798.900,198517.900,205561.500,400597.600,97261.840,217058.800,200183.700,713318.900,0.000
192781.800,198506.200,205476.800,399548.400,97208.910,217057.200,200088.700,713299.400,0.000
192791.200,198524.300,205526.900,399069.500,97247.620,217069.100,200158.800,713295.700,0.000
192810.100,198529.500,205576.600,399616.700,97267.470,217073.900,200191.400,713308.900,0.000
192817.600,198542.200,205641.000,400614.200,97317.350,217080.800,200283.600,713328.100,0.000
192798.200,198527.400,205562.700,400600.300,97272.830,217075.700,200201.200,713325.600,0.000
192785.300,198518.800,205482.900,399557.000,97220.260,217073.400,200104.500,713304.800,0.000
192797.300,198532.600,205533.500,399070.700,97253.520,217073.200,200163.100,713297.200,0.000
192829.800,198543.700,205596.900,399616.800,97282.300,217083.400,200199.500,713307.800,0.000
192838.700,198552.700,205659.800,400616.600,97325.670,217083.500,200286.200,713325.200,0.000
192808.700,198524.900,205566.100,400599.300,97265.860,217063.500,200189.900,713320.800,0.000
192791.000,198508.300,205479.300,399562.900,97211.140,217058.000,200092.600,713302.300,0.000
192804.700,198531.100,205533.600,399089.300,97254.410,217073.800,200166.700,713299.300,0.000
192828.800,198541.800,205590.900,399628.500,97279.000,217080.900,200200.800,713310.800,0.000
192834.300,198555.100,205653.000,400625.100,97322.540,217083.100,200285.900,713327.400,0.000
192805.500,198533.300,205567.000,400612.900,97270.150,217074.200,200200.000,713324.100,0.000
192785.100,198519.400,205482.600,399573.500,97214.720,217072.800,200104.100,713304.000,0.000
192790.500,198528.800,205528.500,399083.800,97246.450,217075.800,200165.500,713298.200,0.000
192806.500,198524.800,205575.100,399597.800,97261.840,217072.000,200189.600,713305.900,0.000
192818.900,198539.700,205644.600,400595.800,97314.130,217077.300,200282.200,713326.100,0.000
192793.800,198518.300,205560.200,400586.600,97263.170,217070.000,200199.200,713324.100,0.000
192780.000,198509.800,205478.200,399546.900,97214.800,217073.900,200110.400,713306.600,0.000
192780.000,198516.800,205517.500,399043.300,97243.950,217072.800,200167.800,713298.200,0.000
192797.900,198522.000,205566.100,399553.900,97260.580,217073.800,200194.700,713308.900,0.000
192811.900,198541.700,205636.900,400546.500,97310.200,217079.500,200285.700,713327.800,0.000
192785.600,198515.300,205548.900,400530.700,97252.890,217061.600,200192.500,713324.900,0.000
192768.900,198500.000,205460.600,399484.200,97194.150,217057.000,200094.500,713305.400,0.000
192779.900,198516.000,205511.700,398997.000,97232.690,217066.400,200162.800,713300.400,0.000
192810.600,198530.200,205572.100,399518.900,97263.350,217079.300,200200.900,713312.900,0.000
192828.400,198548.500,205646.600,400519.000,97318.960,217087.800,200295.200,713334.100,0.000
192796.000,198520.000,205556.100,400502.700,97260.670,217068.600,200199.000,713326.800,0.000
192766.000,198498.100,205459.800,399447.500,97195.050,217058.100,200091.600,713304.600,0.000
192777.000,198515.200,205511.500,398957.800,97234.660,217069.200,200161.000,713299.400,0.000
192802.000,198521.700,205564.800,399462.600,97253.880,217069.700,200187.200,713309.600,0.000
192818.800,198540.000,205638.700,400462.500,97305.730,217076.000,200280.800,713330.600,0.000
192791.100,198514.300,205551.300,400456.500,97253.070,217060.600,200191.600,713325.200,0.000
192774.200,198500.900,205464.300,399418.800,97198.890,217058.300,200093.900,713303.600,0.000
192783.500,198515.800,205513.600,398932.900,97233.940,217062.500,200156.200,713299.100,0.000
192804.000,198519.200,205562.100,399423.700,97247.620,217061.000,200176.800,713307.600,0.000
192814.900,198532.300,205630.600,400406.800,97295.540,217063.000,200266.200,713323.800,0.000
192792.600,198514.100,205549.000,400417.500,97246.090,217055.200,200182.200,713323.600,0.000
192780.900,198507.900,205467.300,399386.200,97195.580,217060.300,200089.900,713306.200,0.000
192796.100,198528.600,205523.200,398897.600,97238.950,217074.300,200162.700,713301.300,0.000
192807.700,198524.500,205565.300,399378.100,97249.670,217066.400,200177.700,713308.400,0.000
192807.000,198527.200,205622.700,400347.300,97288.740,217058.800,200257.800,713322.300,0.000
192789.100,198512.000,205547.500,400359.500,97244.940,217051.900,200177.000,713321.300,0.000
192777.400,198510.200,205467.900,399322.300,97197.370,217060.200,200090.600,713303.000,0.000
192785.600,198524.900,205518.300,398828.000,97235.630,217069.200,200161.000,713298.500,0.000
192802.800,198523.900,205561.100,399307.000,97247.170,217064.900,200178.300,713307.600,0.000
192810.000,198532.000,205625.200,400280.700,97291.250,217061.700,200262.500,713324.900,0.000
192785.900,198509.300,205544.200,400290.000,97242.790,217049.200,200178.500,713321.200,0.000
192770.200,198500.000,205459.600,399249.900,97190.220,217051.000,200083.700,713300.800,0.000
192785.800,198525.300,205517.200,398757.100,97234.200,217065.000,200156.600,713297.800,0.000
192798.900,198522.800,205560.000,399230.500,97244.580,217056.500,200169.500,713305.600,0.000
192808.100,198535.200,205629.600,400203.600,97291.250,217058.900,200256.100,713320.800,0.000
192790.600,198520.400,205559.100,400237.300,97251.550,217056.700,200182.600,713322.100,0.000
192774.500,198506.900,205471.700,399206.800,97194.690,217054.100,200085.100,713304.900,0.000
192784.100,198521.900,205519.100,398705.600,97228.840,217061.000,200153.100,713299.300,0.000
192794.300,198513.700,205554.300,399174.100,97234.380,217049.800,200163.100,713305.900,0.000
192799.100,198521.000,205616.200,400148.800,97279.710,217048.700,200248.400,713321.400,0.000
192782.500,198509.000,205542.700,400185.200,97240.550,217048.300,200177.300,713320.300,0.000
192773.800,198505.000,205462.400,399164.900,97191.110,217054.900,200084.600,713304.000,0.000
192789.100,198525.300,205516.900,398670.600,97231.440,217065.700,200153.300,713297.700,0.000
192803.000,198522.500,205558.600,399144.700,97241.630,217059.700,200169.000,713305.800,0.000
192802.000,198525.300,205617.200,400120.200,97280.340,217052.800,200249.100,713322.700,0.000
192776.900,198503.000,205535.600,400152.000,97230.360,217042.400,200169.200,713320.300,0.000
192766.500,198496.500,205452.300,399130.000,97180.740,217049.600,200079.400,713303.400,0.000
192776.000,198511.000,205499.800,398629.200,97217.220,217057.400,200146.600,713296.500,0.000
192793.100,198508.100,205542.200,399101.300,97227.860,217053.400,200163.500,713303.100,0.000
192807.800,198523.300,205614.400,400084.700,97277.480,217061.200,200256.300,713321.400,0.000
192786.800,198508.800,205542.100,400123.100,97234.560,217055.700,200181.300,713318.900,0.000
192776.900,198504.200,205459.800,399096.400,97183.870,217057.900,200086.600,713299.300,0.000
192801.600,198533.700,205523.700,398603.900,97234.380,217073.500,200163.800,713297.700,0.000
192815.600,198528.800,205564.700,399068.500,97245.120,217066.600,200179.100,713306.300,0.000
192811.800,198528.600,205622.700,400031.200,97283.650,217063.200,200260.800,713321.900,0.000
192788.900,198506.800,205546.300,400070.500,97238.050,217056.200,200185.800,713320.300,0.000
192776.900,198499.500,205458.400,399038.900,97183.520,217058.500,200086.200,713300.700,0.000
192783.600,198513.100,205504.100,398522.300,97215.430,217063.900,200149.000,713294.600,0.000
192808.300,198517.700,205552.700,398988.800,97233.220,217064.900,200171.700,713303.300,0.000
192820.800,198530.100,205621.000,399952.000,97277.120,217059.900,200252.600,713320.100,0.000
192800.900,198516.200,205550.300,399994.900,97235.460,217052.300,200179.200,713318.400,0.000
192785.800,198505.700,205463.800,398968.300,97183.600,217056.200,200084.400,713299.900,0.000
192793.100,198522.400,205512.500,398455.000,97222.130,217066.000,200153.200,713293.200,0.000
192806.100,198518.500,205554.300,398916.300,97234.200,217063.600,200172.000,713302.100,0.000
192818.000,198535.500,205623.400,399885.800,97285.620,217073.800,200266.200,713319.800,0.000
192796.400,198521.300,205548.700,399935.800,97242.250,217068.000,200193.700,713317.000,0.000
192783.100,198509.700,205462.000,398923.500,97187.000,217068.100,200094.500,713299.800,0.000
192792.000,198521.700,205509.400,398409.700,97218.560,217068.400,200153.100,713293.800,0.000
192809.500,198519.400,205553.500,398870.800,97228.750,217060.300,200168.300,713300.400,0.000
192816.000,198527.700,205616.800,399841.300,97273.270,217058.600,200252.600,713316.800,0.000
192799.300,198517.800,205549.300,399905.400,97237.960,217059.100,200187.700,713319.700,0.000
192779.700,198507.500,205458.500,398890.100,97181.190,217061.500,200089.600,713300.000,0.000
192788.500,198522.500,205506.200,398376.600,97217.040,217068.800,200152.800,713295.900,0.000
192811.300,198528.700,205552.200,398843.200,97234.920,217072.400,200178.000,713305.400,0.000
192823.700,198543.500,205619.300,399817.800,97284.090,217076.300,200267.600,713324.600,0.000
192805.400,198527.200,205548.400,399879.200,97243.770,217066.500,200194.200,713323.500,0.000
192789.400,198515.300,205462.000,398871.100,97189.050,217066.300,200093.100,713303.600,0.000
192809.100,198541.700,205523.700,398363.600,97235.550,217084.000,200167.600,713298.800,0.000
192822.500,198538.500,205565.000,398815.500,97244.040,217078.400,200182.800,713305.400,0.000
192825.300,198545.000,205626.200,399776.100,97283.650,217074.600,200264.200,713321.000,0.000
192797.500,198523.800,205547.700,399830.500,97237.420,217065.800,200191.300,713319.400,0.000
192781.200,198511.900,205458.000,398824.800,97181.630,217066.700,200093.400,713301.300,0.000
192792.900,198527.600,205505.800,398300.800,97217.840,217073.400,200157.300,713293.600,0.000
192813.700,198529.400,205551.400,398752.200,97230.360,217071.800,200177.400,713302.100,0.000
192818.400,198536.300,205611.900,399714.600,97270.860,217067.600,200258.300,713316.500,0.000
192793.900,198511.800,205536.500,399777.300,97225.710,217053.200,200180.800,713314.800,0.000
192783.200,198504.600,205454.500,398778.000,97176.800,217055.200,200083.300,713299.400,0.000
192792.800,198522.500,205504.500,398253.200,97216.770,217064.700,200150.300,713294.800,0.000
192813.500,198527.200,205554.500,398706.000,97234.660,217069.000,200175.800,713302.900,0.000
192829.800,198547.900,205630.800,399684.700,97288.120,217082.000,200273.100,713322.700,0.000
192805.300,198528.000,205555.600,399745.400,97243.330,217073.300,200200.700,713318.500,0.000
192789.600,198513.300,205464.100,398744.200,97184.770,217071.100,200099.500,713297.600,0.000
192808.200,198537.900,205517.500,398233.600,97228.390,217086.300,200170.300,713294.600,0.000
192829.200,198541.200,205562.800,398679.300,97242.250,217084.300,200189.500,713302.900,0.000
192833.300,198545.300,205623.900,399647.700,97279.980,217076.500,200267.300,713320.300,0.000
192800.300,198519.300,205540.900,399707.900,97228.660,217058.500,200185.700,713316.400,0.000
192788.900,198507.500,205455.600,398712.800,97175.380,217058.700,200087.500,713298.100,0.000
192801.100,198525.900,205504.400,398194.500,97214.090,217069.300,200155.200,713294.600,0.000
192823.000,198530.600,205551.800,398632.300,97231.970,217076.300,200180.600,713301.500,0.000
192832.400,198541.100,205622.000,399604.400,97279.360,217078.100,200267.300,713319.100,0.000
192810.900,198525.300,205551.800,399684.000,97240.110,217068.600,200196.400,713319.100,0.000
192787.700,198507.900,205454.200,398680.800,97176.450,217061.600,200088.400,713301.700,0.000
192792.800,198520.300,205497.800,398148.300,97208.550,217068.100,200148.700,713295.500,0.000
192812.800,198520.300,205542.100,398574.500,97221.510,217069.300,200169.400,713303.400,0.000
192821.200,198528.500,205606.400,399531.900,97262.640,217066.300,200252.100,713318.100,0.000
192807.000,198518.000,205541.700,399606.900,97226.780,217060.600,200185.900,713317.300,0.000
192801.800,198517.300,205463.100,398609.800,97178.510,217068.200,200093.600,713300.400,0.000
192815.400,198536.500,205513.800,398084.700,97215.250,217074.900,200158.800,713295.500,0.000
192834.000,198535.600,205557.300,398512.300,97226.780,217071.000,200176.600,713303.900,0.000
192841.400,198550.400,205624.300,399481.800,97275.600,217076.900,200266.900,713324.100,0.000
192812.400,198532.800,205550.400,399549.800,97233.580,217070.900,200197.800,713319.400,0.000
192785.000,198511.800,205454.200,398542.000,97174.570,217067.500,200096.700,713298.100,0.000
192797.500,198530.200,205505.200,398022.900,97217.040,217080.700,200166.400,713293.400,0.000
192821.500,198535.000,205555.600,398454.600,97235.460,217082.900,200188.900,713300.600,0.000
192830.700,198549.100,205625.200,399425.800,97281.500,217086.500,200278.000,713317.400,0.000
192803.000,198527.700,205547.500,399503.800,97235.550,217073.400,200203.100,713315.200,0.000
192784.600,198509.300,205453.800,398505.900,97173.410,217065.400,200095.800,713297.500,0.000
192805.000,198534.800,205512.500,397989.200,97218.110,217083.400,200170.500,713293.800,0.000
192826.500,198537.100,205558.400,398412.600,97233.220,217082.300,200190.100,713302.900,0.000
192838.000,198552.400,205630.100,399383.600,97282.040,217086.800,200279.600,713319.800,0.000
192819.100,198540.400,205564.500,399473.800,97246.270,217083.300,200213.800,713317.600,0.000
192794.000,198523.600,205469.400,398475.800,97182.440,217076.700,200103.600,713296.300,0.000
192800.700,198542.200,205517.900,397955.800,97221.510,217089.500,200173.700,713292.800,0.000
192821.500,198545.000,205562.700,398374.900,97235.630,217092.500,200195.400,713299.800,0.000
192825.000,198551.100,205626.100,399337.200,97274.080,217086.200,200274.100,713315.100,0.000
192804.200,198533.300,205555.500,399431.900,97231.790,217073.500,200202.000,713316.000,0.000
192787.700,198512.700,205462.900,398438.600,97169.480,217067.200,200096.200,713295.500,0.000
192796.000,198523.300,205508.100,397918.800,97201.300,217070.400,200157.900,713289.700,0.000
192816.700,198524.900,205550.800,398337.500,97214.540,217068.200,200174.500,713297.500,0.000
192835.700,198546.700,205627.500,399308.800,97269.250,217076.000,200266.200,713315.200,0.000
192817.200,198537.200,205563.300,399415.300,97237.520,217075.100,200206.700,713317.300,0.000
192792.000,198520.600,205463.900,398425.800,97176.630,217071.600,200099.800,713297.200,0.000
192787.900,198527.300,205498.600,397891.400,97203.090,217072.000,200157.000,713288.600,0.000
192809.500,198533.300,205544.700,398312.400,97220.700,217079.200,200182.500,713298.600,0.000
192820.500,198544.800,205614.500,399280.500,97265.230,217079.100,200268.200,713319.200,0.000
192794.200,198517.900,205540.000,399386.400,97216.860,217057.900,200192.400,713319.700,0.000
192778.200,198501.700,205445.900,398399.200,97154.450,217053.100,200085.800,713299.600,0.000
192782.400,198510.400,205486.900,397864.700,97182.800,217053.600,200140.500,713290.500,0.000
192803.900,198515.200,205530.500,398280.800,97198.170,217057.100,200159.900,713298.800,0.000
192824.600,198539.700,205608.300,399256.200,97257.180,217070.000,200259.700,713316.200,0.000
192794.400,198516.600,205534.600,399365.200,97211.670,217054.600,200187.700,713313.100,0.000
192772.700,198502.800,205440.800,398373.600,97150.790,217052.100,200079.100,713294.900,0.000
192788.400,198525.200,205496.800,397847.600,97194.690,217064.300,200150.100,713292.600,0.000
192805.700,198519.100,205537.900,398251.800,97203.900,217058.100,200164.300,713298.300,0.000
192822.200,198534.700,205612.300,399220.000,97255.930,217065.500,200255.400,713315.100,0.000
192806.100,198525.700,205551.500,399350.200,97225.090,217064.000,200197.800,713320.000,0.000
192793.500,198521.000,205463.100,398371.200,97174.300,217075.100,200102.600,713303.800,0.000
192803.100,198540.900,205510.100,397844.000,97213.910,217090.300,200174.000,713300.000,0.000
192821.500,198542.300,205550.500,398253.800,97227.230,217088.000,200191.100,713307.800,0.000
192832.900,198554.400,205620.300,399209.600,97275.600,217092.800,200278.400,713323.700,0.000
192801.200,198526.300,205546.900,399319.800,97229.650,217073.700,200204.700,713318.300,0.000
192771.800,198501.100,205443.000,398317.400,97157.490,217058.500,200085.800,713292.400,0.000
192795.500,198529.500,205503.200,397787.700,97204.260,217075.500,200161.000,713286.800,0.000
192821.500,198533.900,205549.400,398199.700,97217.130,217075.300,200177.800,713295.100,0.000
192828.200,198538.400,205611.700,399150.200,97254.500,217067.500,200254.600,713309.800,0.000
192815.500,198527.800,205551.800,399281.100,97223.030,217065.200,200197.800,713309.800,0.000
192816.300,198527.800,205471.600,398314.000,97176.180,217076.200,200102.300,713295.200,0.000
192832.400,198548.500,205523.000,397785.700,97216.330,217087.900,200171.000,713289.800,0.000
192852.100,198547.500,205564.400,398195.100,97226.880,217082.800,200185.100,713298.400,0.000
192860.200,198557.200,205630.800,399154.700,97271.130,217083.200,200267.100,713315.100,0.000
192849.700,198550.800,205573.800,399299.300,97244.760,217085.900,200214.200,713316.700,0.000
192847.000,198549.100,205491.100,398333.800,97195.850,217094.600,200116.400,713300.200,0.000
192869.000,198576.100,205550.800,397805.700,97241.090,217112.600,200191.300,713295.500,0.000
192894.800,198581.100,205598.000,398218.800,97255.220,217113.200,200210.900,713303.900,0.000
192910.900,198593.800,205668.500,399177.400,97299.300,217111.500,200294.800,713318.800,0.000
192891.500,198574.200,205603.200,399314.300,97259.240,217099.500,200230.100,713316.400,0.000
192874.400,198558.100,205503.900,398343.600,97196.920,217097.500,200123.000,713300.400,0.000
192884.400,198577.000,205548.300,397803.800,97233.490,217106.800,200189.500,713293.200,0.000
192900.200,198577.800,205587.200,398206.500,97244.940,217106.100,200207.100,713301.300,0.000
192909.500,198590.200,205653.600,399161.800,97290.170,217108.000,200290.700,713321.800,0.000
192888.300,198579.900,205593.800,399304.300,97258.620,217105.100,200233.900,713323.300,0.000
192866.000,198562.100,205496.900,398328.500,97196.560,217101.000,200126.400,713302.100,0.000
192872.900,198574.500,205540.700,397776.700,97228.840,217104.400,200188.400,713293.900,0.000
192890.900,198572.800,205583.500,398170.000,97240.290,217102.300,200204.300,713299.800,0.000
192895.000,198576.800,205646.700,399117.800,97279.090,217097.400,200283.900,713315.800,0.000
192865.500,198554.800,205576.500,399261.700,97237.780,217083.600,200220.000,713318.600,0.000
192840.400,198535.900,205475.000,398282.900,97172.880,217081.000,200108.400,713298.800,0.000
192851.400,198557.200,205523.900,397727.500,97208.630,217092.700,200173.600,713292.400,0.000
192872.400,198565.000,205570.300,398126.800,97223.740,217095.500,200194.200,713302.300,0.000
192884.900,198580.600,205639.200,399075.500,97270.690,217098.800,200280.200,713319.400,0.000
192864.300,198564.400,205577.100,399215.500,97235.550,217090.500,200222.100,713319.800,0.000
192852.100,198552.600,205489.500,398253.100,97181.100,217093.100,200120.500,713303.800,0.000
192861.000,198567.800,205536.600,397701.400,97220.440,217104.800,200186.900,713297.300,0.000
192873.700,198564.500,205575.600,398092.400,97228.390,217094.800,200196.500,713305.400,0.000
192874.500,198566.200,205633.600,399036.700,97264.420,217088.300,200275.100,713318.800,0.000
192845.300,198542.200,205562.300,399179.900,97221.420,217072.700,200209.700,713318.100,0.000
192830.200,198529.800,205466.700,398221.300,97163.840,217074.800,200106.500,713300.800,0.000
192832.400,198542.500,205504.900,397661.800,97193.520,217080.900,200165.600,713295.700,0.000
192847.500,198543.600,205545.600,398044.300,97201.750,217076.000,200175.900,713300.900,0.000
192860.700,198558.000,205614.400,398999.800,97247.260,217081.400,200261.600,713319.200,0.000
192841.700,198545.400,205555.600,399153.300,97214.180,217074.300,200204.000,713320.400,0.000
192825.300,198532.100,205464.900,398199.800,97155.700,217071.200,200095.900,713302.600,0.000
192839.100,198552.700,205515.700,397646.000,97196.740,217084.600,200164.600,713298.800,0.000
192854.600,198550.600,205554.300,398026.600,97207.740,217080.600,200179.700,713303.300,0.000
192861.900,198562.200,205621.600,398981.000,97255.040,217083.900,200268.200,713318.500,0.000
192836.400,198545.200,205560.100,399141.900,97219.990,217077.300,200213.100,713319.900,0.000
192819.900,198536.400,205466.500,398188.400,97158.660,217077.600,200101.800,713301.300,0.000
192826.600,198555.300,205512.000,397624.500,97193.880,217087.900,200163.800,713295.400,0.000
192845.500,198555.500,205558.800,398009.400,97211.670,217088.100,200183.300,713304.200,0.000
192854.300,198563.900,205626.000,398965.600,97257.450,217087.100,200269.500,713320.400,0.000
192832.400,198546.800,205562.200,399120.300,97223.300,217080.700,200215.700,713320.800,0.000
192813.700,198531.300,205463.800,398162.200,97160.530,217076.000,200106.500,713302.600,0.000
192825.900,198547.300,205507.700,397603.400,97195.760,217083.100,200167.400,713296.900,0.000
192843.800,198544.600,205547.400,397978.000,97206.130,217076.000,200178.200,713303.600,0.000
192860.100,198559.900,205622.800,398943.100,97257.450,217084.200,200269.200,713322.700,0.000
192839.100,198549.000,205564.500,399105.600,97226.610,217080.800,200216.800,713325.800,0.000
192810.400,198532.800,205464.200,398142.400,97160.000,217076.600,200101.000,713307.300,0.000
192811.200,198549.500,205508.300,397574.400,97195.490,217088.500,200166.200,713298.800,0.000
192829.800,198553.300,205551.600,397944.300,97210.520,217089.200,200184.900,713306.000,0.000
192849.200,198570.300,205626.300,398900.500,97259.770,217092.900,200272.800,713322.100,0.000
192828.700,198553.300,205565.000,399064.400,97225.000,217080.700,200216.000,713323.500,0.000
192812.200,198539.200,205469.900,398112.400,97165.270,217078.500,200109.700,713306.700,0.000
192824.100,198554.300,205515.100,397552.000,97200.860,217089.000,200174.600,713301.500,0.000
192842.000,198551.000,205552.400,397914.300,97208.630,217083.500,200186.400,713307.300,0.000
192846.700,198558.200,205615.900,398864.000,97246.550,217078.400,200264.300,713322.900,0.000
192819.200,198542.100,205554.900,399032.100,97213.550,217073.400,200211.400,713322.700,0.000
192788.000,198518.900,205452.200,398079.800,97146.590,217068.400,200097.400,713305.400,0.000
192799.100,198541.000,205501.800,397522.100,97186.820,217079.500,200164.300,713298.800,0.000
192819.900,198549.400,205547.500,397889.000,97204.080,217083.500,200185.000,713308.800,0.000
192823.400,198554.000,205607.900,398830.000,97240.910,217076.900,200264.000,713324.100,0.000
192803.900,198537.500,205547.700,398998.600,97207.380,217070.000,200211.700,713320.900,0.000
192788.200,198521.600,205451.700,398047.200,97145.600,217065.200,200100.300,713302.500,0.000
192804.500,198540.100,205499.300,397486.400,97183.420,217078.900,200166.900,713297.100,0.000
192824.000,198538.000,205538.200,397845.500,97193.440,217078.100,200180.300,713305.400,0.000
192844.300,198559.700,205615.000,398801.600,97246.270,217088.000,200271.000,713324.300,0.000
192819.100,198542.900,205554.300,398979.400,97213.200,217082.300,200221.900,713324.100,0.000
192776.700,198503.200,205434.900,398012.700,97129.780,217059.800,200092.800,713301.900,0.000
192783.300,198523.500,205480.800,397446.200,97167.690,217072.300,200160.000,713296.900,0.000
192805.400,198534.300,205529.600,397800.000,97189.050,217081.800,200186.800,713304.400,0.000
192811.400,198543.800,205597.100,398740.500,97230.800,217080.600,200267.100,713319.800,0.000
192789.400,198527.400,205537.300,398922.400,97195.310,217068.300,200209.100,713320.000,0.000
192783.700,198521.900,205450.200,397979.600,97142.480,217075.300,200107.700,713305.100,0.000
192791.100,198536.100,205491.800,397405.600,97177.250,217081.000,200167.800,713299.200,0.000
192804.600,198532.100,205525.800,397746.700,97185.300,217075.100,200176.200,713303.600,0.000
192817.300,198544.000,205595.200,398693.400,97229.550,217074.000,200258.100,713319.100,0.000
192798.500,198528.700,205538.800,398885.500,97197.550,217064.400,200205.100,713320.400,0.000
192787.700,198523.600,205449.600,397941.400,97143.730,217072.400,200101.900,713306.900,0.000
192791.000,198535.700,205491.300,397362.300,97177.430,217078.500,200164.600,713298.300,0.000
192797.600,198526.300,205524.600,397705.800,97182.530,217070.100,200173.000,713303.500,0.000
192803.300,198534.600,205590.800,398652.200,97224.640,217067.500,200254.500,713319.700,0.000
192788.500,198529.500,205541.200,398850.300,97200.860,217070.900,200213.200,713318.900,0.000
192781.500,198522.900,205451.700,397903.900,97146.500,217080.200,200108.600,713302.400,0.000
192791.700,198538.000,205496.000,397332.300,97178.510,217079.300,200165.000,713296.600,0.000
192812.200,198540.200,205535.600,397680.100,97189.680,217077.900,200178.100,713303.000,0.000
192820.500,198545.500,205596.600,398620.700,97230.360,217076.000,200259.200,713318.700,0.000
192799.400,198527.000,205537.700,398822.400,97199.960,217066.100,200211.200,713322.500,0.000
192778.500,198508.400,205436.100,397871.200,97134.250,217061.000,200098.400,713303.800,0.000
192789.700,198528.600,205486.600,397299.100,97175.910,217080.000,200174.400,713299.100,0.000
192810.100,198535.500,205532.400,397647.800,97193.340,217087.900,200196.000,713305.600,0.000
192814.600,198544.100,205595.500,398585.100,97230.360,217080.000,200270.700,713320.300,0.000
192795.500,198537.700,205540.700,398784.000,97200.770,217078.000,200224.300,713322.000,0.000
192771.800,198515.100,205431.600,397830.100,97127.010,217068.800,200100.900,713303.800,0.000
192785.900,198532.700,205475.500,397257.000,97161.160,217076.400,200161.800,713297.400,0.000
192801.100,198526.600,205509.900,397596.300,97166.440,217067.000,200167.300,713301.300,0.000
192811.100,198533.300,205577.300,398538.600,97211.590,217068.500,200250.900,713317.800,0.000
192791.800,198519.100,205525.200,398750.700,97186.640,217063.400,200208.600,713321.000,0.000
192772.300,198503.700,205427.200,397811.000,97123.790,217060.700,200098.300,713303.200,0.000
192784.400,198526.600,205475.200,397230.400,97163.300,217074.400,200166.200,713294.700,0.000
192802.400,198531.400,205517.900,397576.700,97175.730,217075.100,200182.500,713302.800,0.000
192811.000,198543.200,205584.400,398512.000,97216.860,217075.500,200263.000,713317.300,0.000
192796.000,198538.000,205535.800,398728.600,97193.800,217075.100,200222.300,713320.200,0.000
192769.800,198510.700,205425.300,397787.200,97119.500,217063.400,200098.200,713301.300,0.000
192761.100,198509.300,205451.700,397192.400,97137.200,217055.500,200145.700,713288.600,0.000
192786.800,198516.500,205500.000,397538.600,97159.820,217062.500,200169.500,713296.800,0.000
192806.100,198536.100,205577.100,398481.800,97214.720,217076.800,200264.000,713315.600,0.000
192789.400,198528.100,205527.800,398702.100,97192.270,217079.200,200227.100,713317.900,0.000
192771.100,198509.300,205428.300,397765.500,97129.240,217077.400,200113.200,713299.800,0.000
192780.900,198529.800,205473.900,397178.300,97166.340,217087.700,200174.500,713293.800,0.000
192803.100,198536.200,205516.300,397510.000,97179.660,217087.900,200188.000,713301.300,0.000
192812.400,198544.800,205580.700,398442.500,97214.630,217082.500,200262.000,713316.000,0.000
192786.000,198527.700,205522.800,398654.900,97180.300,217071.500,200213.300,713318.500,0.000
192768.000,198511.300,205424.200,397722.800,97118.340,217068.900,200101.100,713300.400,0.000
192774.700,198526.500,205465.100,397134.300,97153.290,217077.800,200166.000,713292.500,0.000
192785.700,198519.300,205499.900,397463.100,97161.160,217069.400,200174.000,713297.600,0.000
192810.700,198542.000,205581.800,398411.000,97217.220,217080.000,200264.000,713316.100,0.000
192800.900,198533.900,205538.700,398643.000,97196.030,217077.800,200225.000,713319.700,0.000
192789.500,198520.900,205441.600,397718.200,97133.630,217076.800,200112.600,713303.900,0.000
192797.800,198538.000,205483.100,397128.000,97165.630,217087.500,200175.600,713297.100,0.000
192813.200,198538.700,205522.800,397456.600,97176.980,217087.600,200191.300,713300.600,0.000
192821.400,198549.200,205591.200,398399.300,97223.300,217089.600,200273.300,713317.800,0.000
192793.100,198530.200,205533.200,398628.000,97189.500,217073.700,200223.100,713320.100,0.000
192764.200,198505.300,205422.700,397698.100,97117.440,217061.200,200099.700,713301.100,0.000
192770.900,198520.600,205463.000,397108.400,97153.380,217072.200,200162.000,713295.700,0.000
192781.900,198513.900,205498.100,397434.100,97158.840,217064.200,200171.700,713301.100,0.000
192794.200,198522.800,205567.500,398371.500,97201.130,217062.300,200250.600,713317.000,0.000
192773.200,198502.800,205511.700,398601.400,97168.760,217049.500,200204.000,713316.800,0.000
192766.100,198497.300,205421.300,397686.200,97115.200,217058.500,200100.700,713300.500,0.000
192772.200,198511.800,205460.500,397083.800,97146.950,217063.000,200156.300,713293.000,0.000
192789.700,198513.500,205500.300,397411.100,97157.950,217061.700,200169.200,713300.000,0.000
192800.900,198523.400,205566.300,398347.800,97200.050,217064.900,200252.300,713318.100,0.000
192784.300,198515.000,205517.900,398586.500,97175.820,217063.400,200213.100,713320.900,0.000
192762.200,198500.800,205416.600,397670.900,97110.020,217060.700,200097.400,713302.900,0.000
192761.100,198507.500,205449.700,397067.400,97137.650,217060.000,200150.100,713295.100,0.000
192783.400,198516.200,205495.900,397389.900,97157.050,217063.800,200171.100,713302.700,0.000
192800.000,198534.000,205571.300,398327.200,97207.300,217070.700,200257.600,713319.700,0.000
192780.900,198523.100,205524.800,398561.900,97184.140,217065.800,200220.100,713321.200,0.000
192765.500,198510.500,205427.700,397643.600,97121.730,217064.200,200106.700,713301.800,0.000
192776.000,198526.700,205469.100,397052.600,97154.630,217072.200,200168.200,713293.900,0.000
192797.000,198527.200,205508.700,397385.100,97164.550,217070.900,200183.200,713300.100,0.000
192816.100,198543.000,205577.100,398297.900,97207.480,217075.800,200260.700,713318.100,0.000
192802.200,198533.600,205528.700,398507.900,97182.620,217070.000,200219.900,713320.300,0.000
192777.400,198512.800,205424.000,397594.500,97113.690,217066.200,200103.800,713300.500,0.000
192785.000,198531.300,205469.800,397035.600,97152.480,217080.000,200172.700,713297.300,0.000
192790.800,198525.600,205501.300,397360.100,97159.550,217071.900,200180.800,713301.500,0.000
192798.400,198534.900,205565.900,398261.900,97203.900,217074.500,200257.600,713315.000,0.000
192781.800,198528.300,205522.500,398468.200,97186.200,217077.400,200223.900,713316.300,0.000
192764.100,198515.600,205428.700,397560.000,97123.610,217077.400,200112.500,713297.900,0.000
192784.300,198540.000,205482.400,397007.100,97163.750,217089.500,200179.900,713294.100,0.000
192808.600,198541.300,205525.600,397346.500,97175.550,217089.400,200195.500,713306.200,0.000
192814.700,198542.900,205580.900,398247.700,97205.330,217079.300,200260.900,713320.300,0.000
192799.500,198531.400,205529.900,398453.300,97180.200,217073.500,200221.200,713320.800,0.000
192784.500,198519.200,205433.500,397546.300,97118.420,217073.400,200110.500,713303.300,0.000
192782.500,198526.500,205469.600,396983.400,97144.800,217073.200,200166.200,713296.300,0.000
192784.600,198513.500,205493.500,397302.500,97141.400,217057.900,200164.900,713300.900,0.000
192796.000,198528.500,205562.400,398209.100,97187.540,217065.300,200247.900,713319.200,0.000
192775.800,198519.400,205516.300,398420.100,97167.420,217064.500,200214.800,713319.400,0.000
192748.000,198498.300,205411.500,397508.700,97100.270,217058.700,200098.500,713298.100,0.000
192752.200,198511.100,205451.300,396946.300,97134.160,217066.900,200161.500,713291.400,0.000
192772.100,198512.600,205489.300,397267.200,97146.410,217064.200,200173.400,713301.500,0.000
192785.500,198521.900,205551.800,398167.600,97185.930,217067.000,200250.000,713316.300,0.000
192769.200,198508.200,205501.200,398384.300,97161.520,217062.900,200212.900,713318.800,0.000
192751.000,198488.800,205399.800,397473.100,97093.390,217055.100,200094.500,713300.500,0.000
192754.700,198497.600,205437.200,396903.900,97119.850,217056.200,200151.900,713294.200,0.000
192775.200,198501.300,205477.300,397223.700,97130.310,217055.100,200161.700,713300.900,0.000
192787.700,198518.400,205547.500,398126.000,97175.820,217061.700,200240.300,713318.500,0.000
192755.400,198496.200,205489.100,398333.900,97144.170,217049.200,200196.500,713318.300,0.000
192730.400,198480.600,205388.500,397427.100,97080.520,217046.900,200084.000,713297.900,0.000
192751.700,198515.500,205448.800,396882.900,97134.430,217073.400,200168.500,713295.300,0.000
192775.700,198522.500,205492.600,397210.700,97150.790,217072.200,200183.000,713305.400,0.000
192801.300,198542.200,205566.900,398120.700,97199.520,217079.400,200263.900,713321.000,0.000
192787.700,198530.000,205521.100,398349.000,97175.020,217071.800,200225.500,713324.100,0.000
192772.500,198512.600,205424.400,397450.700,97112.080,217072.400,200114.800,713307.600,0.000
192783.900,198529.800,205472.500,396896.600,97148.380,217082.900,200180.100,713302.700,0.000
192792.800,198523.900,205504.300,397206.500,97151.230,217075.100,200184.500,713304.400,0.000
192795.300,198528.300,205562.100,398096.000,97186.550,217068.000,200251.400,713316.000,0.000
192764.800,198503.200,205504.100,398317.400,97153.200,217053.000,200207.700,713312.400,0.000
192747.700,198490.700,205410.000,397426.200,97092.670,217054.000,200098.100,713296.300,0.000
192757.700,198512.600,205458.500,396871.700,97131.210,217062.200,200162.300,713293.200,0.000
192784.300,198521.700,205502.000,397192.000,97150.610,217067.800,200178.800,713301.100,0.000
192802.200,198536.100,205568.400,398091.700,97193.700,217072.000,200255.300,713314.900,0.000
192787.800,198526.700,205526.500,398333.100,97172.420,217068.500,200221.000,713319.800,0.000
192772.000,198512.400,205428.400,397434.400,97105.730,217065.700,200106.500,713301.900,0.000
192784.300,198536.000,205477.500,396870.300,97145.420,217084.400,200180.300,713294.600,0.000
192797.600,198532.100,205507.800,397175.400,97150.970,217075.500,200188.100,713299.000,0.000
192811.300,198544.400,205570.400,398075.100,97190.480,217077.000,200260.300,713316.300,0.000
192794.800,198536.000,205526.500,398318.700,97169.200,217075.100,200225.100,713320.900,0.000
192781.800,198523.200,205432.600,397428.300,97109.570,217079.600,200115.400,713302.100,0.000
192788.800,198537.100,205477.000,396869.600,97146.140,217084.400,200180.000,713297.100,0.000
192797.800,198528.900,205507.000,397169.900,97149.540,217071.400,200182.300,713301.300,0.000
192807.000,198535.500,205568.100,398062.500,97188.430,217073.400,200255.500,713314.300,0.000
192796.600,198528.900,205527.600,398322.100,97169.660,217070.900,200226.400,713321.600,0.000
192775.300,198510.200,205423.800,397425.400,97099.110,217064.600,200105.700,713305.100,0.000
192781.400,198527.400,205466.700,396855.200,97133.270,217073.600,200170.600,713296.500,0.000
192796.100,198525.200,205501.100,397160.700,97139.260,217068.400,200179.400,713300.900,0.000
192801.500,198528.800,205557.400,398042.800,97173.230,217064.800,200248.300,713313.800,0.000
192781.700,198519.800,205514.700,398298.200,97153.470,217060.800,200218.300,713318.100,0.000
192767.500,198514.800,205422.900,397415.500,97098.300,217069.300,200112.000,713301.500,0.000
192775.200,198535.200,205471.900,396849.800,97140.950,217089.700,200188.600,713297.100,0.000
192788.200,198531.200,205504.600,397154.600,97149.900,217088.000,200200.700,713303.800,0.000
192796.500,198533.900,205560.000,398039.900,97183.960,217084.100,200266.500,713319.600,0.000
192781.500,198524.000,205517.200,398300.800,97163.300,217079.200,200233.500,713322.100,0.000
192766.900,198513.200,205420.000,397416.800,97099.910,217082.300,200119.500,713304.800,0.000
192779.400,198538.500,205469.700,396844.200,97139.610,217096.500,200188.300,713300.000,0.000
192783.600,198527.800,205496.900,397132.500,97137.470,217079.200,200186.000,713303.100,0.000
192798.800,198540.100,205564.200,398024.000,97180.740,217080.900,200259.900,713319.400,0.000
192778.300,198526.300,205519.200,398277.800,97159.280,217073.400,200225.000,713319.400,0.000
192761.700,198513.400,205422.000,397393.100,97098.040,217078.600,200116.600,713301.800,0.000
192775.200,198532.700,205469.800,396821.400,97136.300,217089.000,200182.800,713298.800,0.000
192794.700,198532.700,205505.000,397121.300,97144.530,217080.200,200189.100,713304.900,0.000
192808.800,198542.600,205568.000,398009.300,97183.340,217078.400,200260.200,713320.900,0.000
192795.500,198535.900,205530.400,398274.700,97168.310,217078.500,200234.300,713326.100,0.000
192775.000,198518.700,205428.500,397384.100,97104.210,217079.400,200120.000,713306.200,0.000
192784.300,198539.200,205475.900,396799.000,97141.400,217092.500,200186.400,713297.800,0.000
192806.500,198545.100,205519.200,397101.800,97156.420,217095.700,200204.500,713303.800,0.000
192817.100,198555.800,205580.700,397990.800,97196.120,217097.600,200278.700,713320.000,0.000
192785.200,198533.700,205524.800,398238.200,97164.550,217081.200,200236.500,713322.900,0.000
192761.500,198510.800,205417.100,397350.200,97093.300,217073.700,200115.700,713303.800,0.000
192767.400,198525.800,205458.000,396760.800,97126.200,217081.700,200178.100,713297.800,0.000
192790.800,198531.800,205502.200,397056.200,97143.010,217085.300,200198.100,713303.400,0.000
192812.000,198550.500,205575.100,397951.500,97192.270,217098.800,200281.600,713319.700,0.000
192792.500,198537.800,205532.000,398211.100,97172.340,217093.300,200251.000,713323.300,0.000
192772.100,198522.900,205430.300,397323.600,97108.140,217088.100,200134.100,713307.100,0.000
192781.000,198542.900,205475.800,396730.800,97148.290,217103.600,200204.000,713302.900,0.000
192796.500,198542.600,205513.900,397027.900,97160.180,217102.700,200217.700,713309.800,0.000
192815.000,198560.900,205583.700,397928.400,97206.760,217112.300,200297.700,713329.100,0.000
192794.200,198546.700,205537.600,398183.400,97182.800,217103.800,200261.900,713329.900,0.000
192771.600,198525.800,205431.100,397281.800,97111.270,217095.100,200136.700,713305.400,0.000
192780.800,198541.700,205472.900,396678.900,97142.560,217101.100,200195.800,713295.700,0.000
192804.600,198550.300,205518.000,396986.600,97158.480,217102.900,200212.600,713305.700,0.000
192820.400,198562.500,205581.800,397879.600,97199.960,217107.400,200287.400,713321.300,0.000
192797.300,198541.900,205531.300,398131.700,97170.100,217091.100,200247.900,713324.100,0.000
192779.700,198525.300,205431.500,397250.800,97105.100,217086.300,200130.200,713307.800,0.000
192789.000,198540.300,205473.400,396661.100,97139.610,217091.100,200189.400,713303.900,0.000
192798.600,198531.700,205503.600,396941.600,97142.740,217081.000,200194.000,713305.200,0.000
192815.000,198547.800,205571.500,397836.400,97185.300,217087.900,200267.400,713321.200,0.000
192809.500,198549.500,205539.000,398112.700,97174.130,217093.700,200244.600,713327.000,0.000
192789.400,198533.200,205437.700,397235.900,97105.640,217085.900,200120.500,713310.200,0.000
192801.200,198554.700,205483.400,396631.700,97143.010,217098.900,200184.600,713301.300,0.000
192815.600,198553.900,205519.300,396915.400,97155.530,217100.100,200203.600,713304.300,0.000
192825.700,198561.300,205582.200,397817.200,97197.370,217102.100,200281.300,713320.400,0.000
192795.000,198537.200,205529.100,398086.500,97168.230,217086.300,200244.700,713321.400,0.000
192772.600,198517.100,205422.900,397216.000,97098.580,217079.100,200123.600,713302.300,0.000
192779.400,198534.300,205463.900,396619.300,97132.100,217088.500,200184.800,713297.300,0.000
192801.600,198540.400,205509.000,396912.700,97148.200,217092.700,200203.200,713304.400,0.000
192819.700,198555.500,205578.200,397815.100,97192.270,217099.500,200278.000,713320.800,0.000
192801.600,198546.400,205537.400,398095.700,97172.340,217091.400,200245.800,713326.400,0.000
192780.000,198524.900,205432.500,397222.300,97102.240,217084.100,200123.000,713307.600,0.000
192787.900,198539.900,205472.300,396615.100,97135.860,217092.500,200185.000,713297.600,0.000
192805.400,198539.400,205509.900,396902.700,97146.410,217090.800,200198.700,713306.700,0.000
192815.000,198545.100,205571.600,397799.200,97182.350,217083.300,200265.300,713322.600,0.000
192799.500,198536.300,205534.500,398080.800,97166.260,217076.000,200235.800,713326.300,0.000
192784.600,198524.000,205438.100,397212.300,97106.170,217078.000,200120.000,713308.900,0.000
192785.300,198537.100,205475.000,396606.700,97138.720,217085.200,200180.200,713300.100,0.000
192794.900,198538.200,205508.100,396881.700,97148.550,217084.300,200194.200,713302.900,0.000
192802.700,198546.800,205569.100,397784.600,97190.040,217086.500,200269.500,713320.400,0.000
192785.000,198535.100,205527.200,398070.500,97174.390,217083.700,200245.800,713326.400,0.000
192777.100,198528.000,205435.300,397212.300,97121.200,217091.900,200139.100,713310.200,0.000
192781.000,198545.500,205477.900,396605.200,97155.260,217100.900,200201.400,713301.100,0.000
192799.500,198546.900,205516.900,396877.100,97163.750,217097.100,200212.800,713305.400,0.000
192817.400,198554.100,205578.300,397768.600,97197.640,217095.400,200280.700,713320.000,0.000
192804.300,198545.700,205540.500,398057.400,97178.950,217090.300,200251.300,713324.600,0.000
192792.700,198536.200,205444.500,397197.900,97116.630,217089.200,200134.200,713311.200,0.000
192804.900,198553.800,205485.800,396597.600,97149.720,217097.700,200191.000,713303.300,0.000
192808.900,198541.300,205509.000,396864.900,97149.450,217086.000,200194.300,713307.100,0.000
192809.400,198545.500,205561.900,397755.800,97181.630,217085.400,200264.100,713322.000,0.000
192784.000,198532.800,205517.300,398047.700,97159.100,217080.600,200238.200,713325.400,0.000
192765.800,198516.700,205416.200,397180.900,97093.130,217080.900,200124.400,713307.300,0.000
192774.500,198534.700,205458.000,396579.100,97126.830,217092.000,200188.300,713300.400,0.000
192793.000,198537.000,205495.300,396847.100,97138.450,217088.500,200199.400,713305.700,0.000
192816.500,198554.500,205571.300,397748.800,97189.050,217096.200,200279.300,713325.200,0.000
192802.800,198545.300,205535.800,398042.600,97173.230,217092.300,200254.700,713326.200,0.000
192784.200,198524.600,205432.000,397176.100,97102.600,217085.700,200133.100,713307.100,0.000
192795.200,198545.000,205474.800,396572.700,97139.520,217099.300,200197.400,713301.600,0.000
192811.300,198548.600,205512.000,396838.300,97152.660,217101.500,200212.300,713306.000,0.000
192818.900,198557.300,205571.100,397727.700,97188.520,217102.900,200281.500,713320.400,0.000
192800.500,198547.900,205531.600,398031.200,97170.460,217098.100,200255.800,713326.800,0.000
192769.100,198520.100,205417.300,397152.400,97092.670,217083.800,200123.600,713305.600,0.000
192773.700,198536.300,205456.000,396540.900,97126.740,217094.500,200185.900,713296.900,0.000
192803.800,198548.000,205505.800,396814.800,97149.360,217101.500,200209.500,713303.600,0.000
192822.100,198560.000,205572.800,397705.900,97187.450,217102.800,200280.200,713318.900,0.000
192796.600,198540.200,205525.000,397996.100,97157.590,217084.400,200243.600,713320.400,0.000
192771.500,198519.500,205415.800,397126.200,97083.730,217077.700,200120.800,713303.900,0.000
192783.500,198541.400,205462.500,396521.400,97124.500,217095.700,200192.100,713298.600,0.000
192809.400,198551.200,205510.000,396791.200,97148.020,217104.400,200218.400,713304.600,0.000
192820.600,198558.200,205574.300,397685.200,97187.000,217102.900,200288.900,713319.800,0.000
192803.000,198547.700,205537.100,397992.800,97168.940,217094.900,200260.400,713322.800,0.000
192784.600,198532.800,205435.300,397134.200,97102.600,217090.300,200137.900,713307.800,0.000
192798.400,198553.700,205481.100,396529.600,97140.510,217104.700,200203.800,713302.300,0.000
192815.500,198553.000,205516.800,396795.800,97150.430,217104.200,200217.800,713308.200,0.000
192818.900,198553.600,205569.200,397675.400,97176.800,217093.600,200277.900,713319.200,0.000
192799.400,198538.300,205529.900,397982.800,97155.980,217081.800,200250.300,713321.400,0.000
192777.000,198519.600,205425.000,397126.400,97088.300,217081.800,200132.300,713303.600,0.000
192781.400,198534.800,205464.500,396522.500,97122.450,217091.200,200193.700,713297.300,0.000
192802.800,198540.600,205508.700,396802.700,97137.550,217093.500,200210.000,713303.600,0.000
192814.100,198546.300,205568.900,397694.600,97172.520,217089.500,200273.300,713321.100,0.000
192787.400,198527.200,205522.300,398008.300,97147.030,217073.300,200239.700,713323.800,0.000
192774.000,198515.800,205424.600,397165.600,97083.640,217077.000,200125.300,713310.000,0.000
192787.800,198537.200,205468.500,396566.000,97122.180,217094.100,200196.000,713303.000,0.000
192796.100,198529.500,205495.000,396833.200,97122.000,217085.200,200202.200,713307.300,0.000
192811.300,198543.500,205558.400,397726.200,97158.660,217086.800,200270.800,713323.400,0.000
192790.400,198529.200,205520.200,398048.700,97141.400,217077.000,200247.000,713324.700,0.000
192779.300,198521.100,205427.300,397217.600,97087.660,217085.100,200137.500,713310.700,0.000
192786.500,198539.600,205470.800,396619.400,97126.110,217094.800,200200.400,713304.900,0.000
192800.200,198538.100,205508.900,396890.200,97138.090,217091.800,200212.900,713308.500,0.000
192810.700,198548.100,205571.900,397776.500,97177.520,217093.800,200283.300,713323.500,0.000
192794.000,198538.400,205537.100,398108.600,97161.250,217085.300,200262.500,713328.100,0.000
192768.400,198513.600,205423.600,397256.100,97085.970,217077.300,200135.700,713309.800,0.000
192769.300,198524.500,205455.300,396631.100,97113.330,217083.800,200190.500,713301.300,0.000
192787.300,198528.800,205494.500,396887.300,97125.480,217084.100,200206.700,713306.300,0.000
192799.600,198537.900,205555.800,397754.500,97159.100,217084.000,200272.800,713318.800,0.000
192783.300,198530.900,205523.800,398072.500,97145.340,217082.300,200253.900,713322.300,0.000
192767.700,198519.000,205423.000,397222.200,97081.230,217082.100,200134.100,713307.300,0.000
192773.200,198538.300,205460.900,396586.800,97113.410,217092.100,200192.700,713300.600,0.000
192789.300,198539.600,205498.500,396831.000,97126.020,217088.900,200204.700,713307.300,0.000
192803.200,198548.900,205562.400,397688.600,97164.650,217091.400,200272.700,713324.100,0.000
192786.300,198537.500,205527.300,397991.300,97151.150,217088.500,200255.500,713325.800,0.000
192765.800,198520.100,205420.700,397126.100,97084.800,217088.600,200138.100,713305.000,0.000
192771.500,198535.600,205457.800,396485.300,97115.300,217098.300,200197.700,713297.500,0.000
192788.800,198537.900,205495.800,396722.600,97126.290,217097.400,200212.500,713305.900,0.000
192797.000,198543.900,205553.300,397574.300,97160.270,217094.100,200275.800,713321.200,0.000
192783.100,198539.200,205522.700,397884.400,97148.550,217091.500,200259.500,713324.900,0.000
192762.700,198521.300,205416.500,397025.200,97080.250,217088.300,200137.600,713307.900,0.000
192764.100,198532.300,205449.700,396379.400,97109.390,217097.600,200194.200,713298.600,0.000
192779.000,198531.200,205485.300,396613.600,97119.140,217092.800,200204.400,713301.900,0.000
192798.200,198543.900,205550.900,397475.100,97159.100,217094.500,200273.400,713318.100,0.000
192784.100,198537.000,205521.100,397792.300,97145.240,217090.700,200255.000,713322.300,0.000
192765.800,198518.500,205416.800,396933.000,97075.240,217087.800,200131.500,713304.100,0.000
192771.300,198528.700,205451.300,396283.400,97103.230,217091.600,200184.400,713297.500,0.000
