EEG 1, EEG 2, EEG 3, EEG 4, EEG 5, EEG 6, EEG 7, EEG 8, TRIG
248799.700,256733.000,276172.900,750000.100,118656.400,283393.800,259542.100,750000.100,0.000
244435.500,252186.900,269517.400,750000.100,117466.300,278207.200,254886.600,750000.100,0.000
240538.300,248123.500,263956.500,750000.100,116241.900,273610.300,250559.800,750000.100,0.000
237088.000,244539.700,259336.300,750000.100,115181.900,269545.200,246800.700,750000.100,0.000
234018.500,241325.800,255524.300,750000.100,114330.000,265882.300,243674.300,750000.100,0.000
231221.600,238396.800,252194.800,750000.100,113558.000,262538.900,240900.600,750000.100,0.000
228636.100,235708.300,249023.100,750000.100,112717.400,259490.500,238134.100,750000.100,0.000
226251.900,233223.500,246018.400,750000.100,111840.200,256707.200,235430.300,750000.100,0.000
224099.000,230996.100,243381.900,750000.100,111096.600,254184.300,233047.900,750000.100,0.000
222152.000,228960.200,241171.400,750000.100,110533.000,251864.500,231103.000,750000.100,0.000
220339.800,227062.300,239180.600,750000.100,110031.300,249701.000,229370.500,750000.100,0.000
218602.200,225267.700,237142.300,750000.100,109432.400,247675.100,227520.700,750000.100,0.000
216980.100,223583.300,235131.000,750000.100,108784.700,245796.300,225638.500,750000.100,0.000
215500.500,222051.500,233349.600,750000.100,108234.500,244061.900,223969.200,750000.100,0.000
214149.800,220632.800,231873.500,750000.100,107832.300,242442.100,222638.900,750000.100,0.000
212877.800,219296.500,230538.700,750000.100,107483.800,240915.900,221463.600,750000.100,0.000
211643.600,218026.300,229108.400,738973.000,107044.500,239484.900,220151.700,750000.100,0.000
210470.600,216808.800,227642.000,720555.400,106541.500,238138.500,218756.400,750000.100,0.000
209397.200,215705.200,226351.100,702200.300,106124.200,236893.900,217528.000,750000.100,0.000
208422.100,214680.100,225320.000,686899.300,105844.800,235725.600,216601.700,750000.100,0.000
207501.100,213709.400,224393.900,675569.400,105615.700,234619.900,215801.500,750000.100,0.000
206588.700,212770.600,223342.500,663780.600,105284.100,233566.600,214828.600,750000.100,0.000
205719.500,211867.100,222231.000,651088.300,104881.700,232567.800,213750.900,750000.100,0.000
204925.200,211050.300,221265.900,637946.800,104557.500,231653.400,212821.600,750000.100,0.000
204209.400,210295.100,220532.400,627308.700,104365.700,230791.000,212166.000,750000.100,0.000
203517.800,209567.400,219870.400,620125.300,104202.300,229953.200,211600.000,750000.100,0.000
202833.800,208866.200,219081.600,612167.000,103948.400,229163.800,210867.600,750000.100,0.000
202182.400,208191.700,218226.100,603032.800,103634.900,228425.500,210031.100,750000.100,0.000
201587.600,207583.100,217489.000,593158.600,103384.000,227738.000,209309.000,750000.100,0.000
201065.400,207027.100,216972.200,585482.800,103263.500,227092.900,208845.400,750000.100,0.000
200562.100,206489.800,216520.100,580985.900,103175.900,226473.800,208472.300,750000.100,0.000
200053.400,205965.300,215928.500,575521.100,102994.000,225884.600,207921.200,750000.100,0.000
199551.700,205445.400,215242.900,568662.800,102733.000,225324.200,207247.000,750000.100,0.000
199093.100,204981.900,214663.500,560886.500,102530.900,224807.200,206678.500,749899.600,0.000
198697.700,204564.000,214292.700,555142.600,102454.800,224321.000,206358.600,747898.600,0.000
198319.800,204160.900,213983.200,552452.600,102412.700,223849.700,206122.300,746043.300,0.000
197932.900,203766.600,213530.200,548651.100,102274.200,223403.400,205697.200,744261.400,0.000
197551.300,203371.900,212983.000,543351.600,102059.100,222973.500,205144.400,742536.700,0.000
197212.200,203032.000,212536.700,537014.400,101907.300,222591.000,204695.400,740882.500,0.000
196925.400,202726.600,212288.300,532556.900,101876.000,222233.400,204484.800,739350.700,0.000
196642.400,202422.100,212085.500,531026.500,101868.400,221877.400,204347.100,737942.300,0.000
196333.400,202105.500,211720.500,528287.000,101750.700,221527.300,204008.800,736575.100,0.000
196035.600,201794.200,211268.700,523995.500,101562.500,221193.300,203541.100,735244.200,0.000
195784.200,201541.800,210919.000,518606.900,101442.500,220905.600,203181.800,733971.300,0.000
195575.000,201316.200,210754.200,515015.100,101438.100,220639.600,203053.200,732794.400,0.000
195378.500,201102.100,210645.900,514284.600,101466.900,220378.400,202998.400,731720.300,0.000
195146.900,200871.900,210372.400,512333.100,101384.800,220116.000,202739.500,730675.300,0.000
194914.900,200631.200,209997.200,508784.900,101226.400,219867.800,202352.200,729653.000,0.000
194730.300,200445.000,209723.200,504107.800,101137.700,219664.600,202071.400,728668.300,0.000
194581.400,200283.300,209627.500,501157.900,101157.000,219467.400,202007.300,727770.000,0.000
194424.300,200111.400,209565.300,501005.100,101190.400,219257.300,201999.800,726957.000,0.000
194240.600,199932.700,209345.500,499583.000,101123.000,219059.100,201797.800,726157.800,0.000
194072.300,199758.600,209038.100,496564.200,100992.100,218879.800,201468.400,725376.000,0.000
193932.800,199618.600,208815.500,492378.700,100914.800,218720.100,201224.100,724617.500,0.000
193829.800,199505.700,208771.500,489921.600,100950.700,218575.600,201207.300,723929.400,0.000
193728.100,199387.900,208772.100,490285.500,101011.600,218427.400,201256.700,723322.600,0.000
193597.600,199261.300,208608.000,489408.000,100967.800,218284.500,201106.700,722723.300,0.000
193467.000,199125.000,208342.700,486910.800,100853.600,218150.700,200825.900,722126.900,0.000
193362.500,199024.700,208160.500,483240.600,100788.000,218036.800,200627.600,721543.100,0.000
193297.700,198948.700,208157.600,481257.000,100834.400,217934.700,200649.900,721026.000,0.000
193229.000,198864.300,208193.200,482075.200,100905.500,217823.500,200731.000,720580.100,0.000
193124.200,198762.400,208059.400,481595.300,100866.800,217709.400,200602.500,720128.400,0.000
193021.500,198659.300,207829.900,479472.800,100760.500,217612.200,200353.100,719674.600,0.000
192948.200,198596.000,207680.600,476130.000,100707.000,217540.000,200184.700,719226.600,0.000
192915.000,198551.400,207711.800,474460.800,100767.800,217476.800,200236.600,718838.700,0.000
192870.400,198494.000,207774.600,475585.800,100847.000,217397.000,200345.000,718512.600,0.000
192799.400,198432.500,207676.100,475431.100,100825.400,217321.900,200257.400,718180.400,0.000
192719.900,198345.300,207467.700,473559.500,100721.500,217243.300,200025.200,717838.400,0.000
192663.200,198291.000,207335.200,470416.500,100666.900,217184.400,199869.100,717495.100,0.000
192656.200,198274.400,207392.300,468895.600,100739.900,217150.000,199949.600,717207.300,0.000
192648.700,198250.900,207491.100,470174.000,100838.200,217103.000,200092.200,716980.700,0.000
192587.700,198189.000,207400.600,470083.800,100809.100,217030.300,200005.800,716737.700,0.000
192528.300,198127.000,207217.900,468313.900,100716.500,216981.500,199797.300,716480.100,0.000
192501.600,198107.900,207121.300,465291.800,100685.300,216962.200,199674.600,716217.600,0.000
192496.300,198094.100,207186.700,463923.800,100751.200,216929.300,199756.100,715997.800,0.000
192481.300,198067.100,207286.300,465404.100,100839.800,216886.100,199901.800,715837.200,0.000
192438.100,198032.100,207224.300,465592.000,100829.300,216848.500,199850.000,715660.300,0.000
192391.800,197987.900,207059.100,464118.700,100744.100,216817.200,199661.300,715464.100,0.000
192375.300,197979.300,206971.900,461428.600,100711.500,216804.200,199549.200,715261.100,0.000
192386.300,197984.500,207053.300,460378.400,100783.800,216790.600,199646.100,715100.200,0.000
192394.100,197979.300,207174.800,462179.700,100884.800,216766.700,199809.000,714993.800,0.000
192364.600,197951.700,207124.800,462650.200,100878.800,216737.900,199765.400,714866.900,0.000
192325.600,197912.500,206965.500,461423.900,100796.600,216716.400,199586.100,714718.000,0.000
192315.000,197911.800,206886.200,458910.700,100766.000,216720.600,199485.500,714558.300,0.000
192344.000,197931.200,206983.900,458006.600,100849.000,216725.300,199603.000,714443.900,0.000
192365.800,197943.700,207118.300,459906.800,100957.100,216721.000,199783.500,714381.600,0.000
192342.200,197927.700,207074.200,460467.200,100948.200,216697.800,199742.100,714293.600,0.000
192316.400,197902.600,206930.100,459329.200,100871.100,216684.000,199568.800,714182.400,0.000
192312.000,197904.500,206862.100,456945.000,100843.600,216688.500,199472.600,714055.600,0.000
192334.600,197919.200,206957.100,456145.800,100919.800,216692.700,199585.500,713970.900,0.000
192354.700,197929.800,207090.800,458085.400,101025.700,216688.600,199765.100,713935.600,0.000
192344.900,197926.100,207065.800,458742.100,101032.500,216683.700,199743.400,713876.200,0.000
192319.000,197895.800,206921.800,457704.600,100947.900,216664.600,199565.100,713791.400,0.000
192323.900,197907.900,206862.500,455447.800,100923.100,216676.700,199477.400,713691.900,0.000
192365.500,197942.900,206972.100,454716.800,101009.100,216694.700,199601.900,713631.400,0.000
192400.100,197965.200,207114.600,456609.000,101117.100,216701.400,199784.600,713619.600,0.000
192387.800,197959.400,207089.200,457251.300,101117.900,216699.100,199766.800,713580.600,0.000
192361.200,197929.000,206949.400,456220.700,101037.000,216691.000,199602.300,713514.400,0.000
192361.300,197937.600,206887.000,453970.800,101010.000,216701.800,199517.300,713436.700,0.000
192392.000,197965.900,206984.900,453215.300,101084.800,216717.500,199631.000,713394.600,0.000
192422.600,197988.400,207126.700,455152.400,101189.600,216721.000,199811.900,713398.700,0.000
192422.700,197999.000,207112.100,455861.100,101197.200,216726.900,199799.800,713380.900,0.000
192411.800,197990.200,206986.500,454852.300,101126.400,216733.200,199645.400,713331.100,0.000
192411.700,197998.200,206918.200,452490.900,101089.400,216743.500,199545.500,713257.500,0.000
192447.100,198026.200,207027.000,451711.200,101168.800,216758.800,199671.300,713226.600,0.000
192478.900,198044.400,207174.800,453763.300,101277.700,216765.200,199866.400,713246.100,0.000
192469.400,198039.100,207143.500,454376.800,101273.100,216761.400,199843.700,713235.400,0.000
192444.600,198015.400,207000.500,453219.900,101187.100,216753.300,199677.800,713191.300,0.000
192442.600,198025.300,206936.000,450826.500,101154.500,216768.600,199593.600,713130.500,0.000
192477.900,198052.200,207036.100,449869.900,101229.400,216784.200,199712.000,713108.600,0.000
192507.200,198068.000,207167.300,451398.700,101323.100,216786.200,199881.800,713128.300,0.000
192503.200,198072.500,207149.500,451701.800,101322.400,216789.500,199869.800,713120.200,0.000
192485.300,198058.400,207021.000,450340.600,101245.200,216790.100,199714.100,713082.300,0.000
192499.100,198082.300,206976.800,447798.900,101227.900,216812.600,199639.400,713032.400,0.000
192536.700,198108.300,207079.600,446713.800,101303.600,216833.700,199757.200,713012.100,0.000
192554.400,198114.300,207202.600,448146.300,101386.600,216831.000,199918.200,713026.800,0.000
192547.600,198116.400,207184.800,448441.600,101384.300,216837.100,199903.900,713019.000,0.000
192538.700,198111.500,207065.300,447132.600,101314.300,216851.600,199756.100,712983.900,0.000
192546.100,198128.200,207007.800,444635.200,101284.200,216871.700,199669.600,712929.400,0.000
192589.400,198167.400,207116.700,443587.000,101361.900,216898.800,199786.400,712906.400,0.000
192616.200,198187.900,207252.800,445040.100,101452.200,216901.400,199948.600,712922.700,0.000
192610.000,198188.300,207233.600,445315.400,101444.900,216899.500,199926.000,712913.200,0.000
192602.200,198176.900,207112.000,443942.100,101372.100,216909.100,199777.100,712877.400,0.000
192609.300,198186.000,207052.600,441365.400,101339.500,216928.100,199694.800,712824.800,0.000
192641.300,198211.500,207146.000,440207.200,101403.500,216946.400,199802.300,712801.100,0.000
192669.400,198234.000,207280.600,441531.900,101497.800,216957.400,199973.700,712821.200,0.000
192664.400,198237.000,207259.800,441638.400,101495.000,216956.400,199957.700,712818.300,0.000
192637.500,198211.900,207117.000,440020.400,101403.700,216948.700,199791.300,712780.900,0.000
192634.000,198218.900,207049.400,437161.300,101363.700,216959.400,199704.600,712729.100,0.000
192661.700,198242.100,207142.400,435725.700,101426.200,216972.400,199816.600,712712.300,0.000
192677.800,198250.100,207265.300,436789.400,101507.000,216967.600,199979.400,712734.100,0.000
192663.500,198239.700,207235.400,436663.500,101491.900,216958.300,199957.700,712727.000,0.000
192639.200,198211.800,207093.500,434846.800,101397.400,216947.400,199790.900,712690.400,0.000
192642.000,198221.700,207027.400,431817.800,101356.800,216958.700,199699.700,712641.300,0.000
192671.200,198247.100,207121.600,430226.300,101419.800,216973.500,199809.100,712622.900,0.000
192684.200,198253.500,207242.800,431166.600,101497.000,216964.500,199960.600,712640.800,0.000
192665.300,198237.300,207208.600,430934.700,101478.500,216953.000,199930.400,712633.600,0.000
192629.200,198199.000,207057.100,429014.500,101375.400,216935.000,199748.400,712595.000,0.000
192630.900,198210.200,206990.900,425878.000,101335.400,216948.300,199653.300,712543.900,0.000
192654.300,198228.400,207079.500,424189.500,101391.900,216955.500,199749.400,712517.600,0.000
192667.000,198230.700,207199.400,425059.700,101467.400,216949.600,199902.500,712531.400,0.000
192649.900,198219.500,207164.600,424749.300,101448.700,216937.600,199867.100,712521.600,0.000
192616.400,198187.900,207017.300,422772.500,101349.300,216919.400,199685.000,712483.400,0.000
192603.300,198190.800,206939.900,419601.400,101298.000,216924.900,199582.800,712431.300,0.000
192619.700,198203.100,207025.900,417901.200,101351.100,216930.900,199682.400,712411.300,0.000
192638.300,198209.300,207157.100,418792.500,101436.200,216931.100,199845.400,712432.800,0.000
192612.200,198191.500,207116.300,418540.800,101412.500,216914.300,199808.400,712427.800,0.000
192578.100,198158.100,206968.700,416668.700,101312.900,216898.800,199632.300,712396.600,0.000
192566.900,198157.900,206890.300,413646.500,101261.500,216898.700,199531.000,712354.700,0.000
192588.500,198173.500,206977.700,412089.300,101315.500,216902.800,199630.600,712345.500,0.000
192614.600,198194.500,207112.500,413071.300,101403.400,216905.200,199794.700,712382.100,0.000
192599.500,198184.800,207083.100,412967.400,101388.500,216893.300,199768.200,712398.300,0.000
192568.100,198154.100,206940.100,411291.800,101294.000,216881.000,199598.000,712386.900,0.000
192562.800,198155.600,206873.500,408574.200,101253.500,216889.700,199509.800,712365.600,0.000
192576.100,198164.400,206957.000,407346.100,101306.100,216892.200,199607.100,712376.400,0.000
192594.100,198174.500,207086.300,408611.700,101389.800,216891.500,199767.700,712426.300,0.000
192581.000,198165.800,207066.200,408953.300,101381.100,216884.500,199747.500,712456.400,0.000
192560.400,198145.900,206940.100,407811.400,101295.000,216874.800,199585.500,712465.400,0.000
192561.400,198154.000,206889.000,405844.800,101263.100,216884.200,199511.100,712463.900,0.000
192585.400,198175.100,206976.800,405268.300,101322.100,216898.300,199610.800,712491.100,0.000
192604.500,198192.100,207091.200,406720.700,101398.300,216903.200,199751.100,712546.800,0.000
192591.100,198189.000,207071.000,407387.800,101393.700,216903.000,199740.800,712583.900,0.000
192563.600,198159.700,206936.100,406637.200,101304.500,216894.500,199582.500,712591.200,0.000
192570.700,198163.700,206896.000,405135.200,101280.300,216905.000,199519.600,712592.700,0.000
192597.700,198185.200,206976.400,404801.600,101332.200,216916.400,199602.800,712618.400,0.000
192624.800,198204.200,207081.600,406133.000,101401.300,216918.200,199722.700,712665.800,0.000
192625.700,198207.100,207076.900,406823.100,101403.700,216917.500,199718.800,712699.700,0.000
192611.700,198188.900,206962.000,406224.900,101330.100,216919.800,199578.000,712709.400,0.000
192619.600,198203.000,206933.500,405015.300,101313.000,216934.800,199530.800,712714.300,0.000
192640.000,198222.300,207007.500,404885.700,101361.000,216943.700,199612.700,712739.300,0.000
192656.400,198235.000,207099.000,406217.000,101420.400,216946.600,199728.100,712783.700,0.000
192659.900,198245.300,207106.200,407095.100,101434.500,216956.400,199747.900,712819.900,0.000
192640.200,198224.300,206995.100,406762.700,101363.200,216955.100,199619.300,712831.400,0.000
192648.800,198239.300,206978.000,405946.900,101354.800,216973.000,199592.900,712837.900,0.000
192666.200,198256.500,207047.700,406146.300,101399.400,216984.200,199677.400,712859.800,0.000
192684.200,198264.700,207134.300,407580.500,101454.400,216982.300,199783.800,712897.400,0.000
192683.700,198266.200,207143.800,408669.700,101465.800,216981.800,199799.900,712922.600,0.000
192664.100,198242.200,207034.700,408601.300,101392.900,216973.600,199669.300,712924.600,0.000
192673.800,198253.200,207022.400,408133.800,101386.500,216983.600,199647.400,712922.400,0.000
192692.300,198268.300,207087.500,408575.900,101430.300,216992.900,199724.800,712941.400,0.000
192711.700,198280.900,207162.200,409990.700,101479.800,216995.300,199817.900,712975.400,0.000
192709.500,198284.300,207170.100,411164.800,101490.600,216997.900,199841.400,712998.700,0.000
192693.100,198268.400,207065.000,411250.100,101421.900,216995.500,199718.600,713001.900,0.000
192709.300,198291.400,207065.000,410989.500,101426.900,217017.900,199710.300,713004.100,0.000
192734.500,198311.400,207130.300,411523.700,101472.400,217032.200,199780.900,713014.800,0.000
192745.500,198315.100,207190.900,412854.900,101507.700,217026.200,199853.600,713037.600,0.000
192749.700,198321.600,207210.800,414088.500,101525.300,217031.400,199881.600,713060.300,0.000
192735.800,198305.000,207113.300,414298.300,101462.500,217030.200,199764.200,713059.200,0.000
192743.600,198316.600,207112.400,414274.500,101465.400,217042.500,199757.900,713056.400,0.000
192763.400,198335.600,207168.600,414974.600,101506.700,217057.400,199822.000,713066.600,0.000
192782.400,198354.800,207231.300,416301.400,101548.300,217065.300,199896.400,713087.800,0.000
192783.000,198360.900,207250.800,417621.700,101563.700,217067.000,199925.500,713108.200,0.000
192762.600,198339.200,207149.600,417969.900,101495.300,217061.600,199802.900,713105.500,0.000
192775.200,198354.700,207156.100,418138.200,101501.600,217077.600,199801.000,713103.500,0.000
192789.700,198362.800,207199.600,418940.900,101527.700,217081.500,199846.300,713112.900,0.000
192800.000,198366.200,207246.900,420206.700,101553.700,217077.700,199896.500,713126.400,0.000
192799.400,198365.600,207268.100,421565.000,101568.900,217077.300,199927.700,713141.900,0.000
192783.000,198346.200,207172.800,421984.500,101504.900,217077.100,199813.800,713139.900,0.000
192790.000,198359.000,207178.500,422260.200,101510.800,217086.500,199815.200,713135.200,0.000
192811.900,198383.600,207225.800,423129.500,101546.000,217105.100,199865.900,713145.700,0.000
192833.500,198397.800,207276.300,424354.100,101580.000,217114.000,199916.100,713162.100,0.000
192833.600,198400.000,207302.000,425736.100,101600.600,217116.500,199951.700,713175.800,0.000
192811.200,198375.000,207203.900,426218.100,101533.600,217109.000,199836.900,713171.100,0.000
192819.500,198384.300,207214.500,426611.100,101540.500,217114.700,199839.900,713169.800,0.000
192829.200,198391.200,207247.700,427517.900,101560.600,217116.900,199870.600,713176.100,0.000
192848.200,198405.800,207291.700,428667.300,101585.600,217123.400,199908.500,713190.200,0.000
192853.000,198413.300,207321.900,430022.500,101608.500,217123.500,199944.500,713204.700,0.000
192831.700,198387.700,207224.200,430465.600,101541.600,217113.500,199826.500,713200.800,0.000
192832.800,198394.000,207228.400,430826.700,101544.900,217117.600,199828.500,713197.800,0.000
192846.900,198405.500,207260.000,431641.900,101566.100,217122.900,199856.600,713206.500,0.000
192860.300,198411.100,207292.200,432580.300,101582.700,217127.200,199885.700,713216.100,0.000
192864.800,198418.200,207327.600,433782.900,101612.300,217134.400,199933.500,713231.900,0.000
192851.600,198403.600,207247.000,434120.300,101560.700,217137.300,199832.500,713230.400,0.000
192855.300,198412.600,207262.900,434425.100,101572.200,217141.600,199846.900,713230.000,0.000
192870.000,198424.500,207295.500,435163.500,101593.700,217147.300,199874.100,713236.700,0.000
192890.500,198439.100,207331.900,435969.700,101617.200,217156.200,199904.500,713247.700,0.000
192899.900,198451.700,207374.000,437117.200,101654.200,217164.000,199963.500,713266.600,0.000
192878.200,198425.500,207280.800,437419.900,101592.900,217152.400,199859.400,713262.500,0.000
192882.500,198432.500,207293.800,437722.400,101606.600,217160.300,199883.300,713266.400,0.000
192889.000,198434.900,207313.200,438411.400,101621.000,217161.600,199907.200,713276.500,0.000
192899.400,198437.700,207337.400,439120.300,101631.500,217160.200,199925.900,713284.300,0.000
192905.500,198450.200,207379.000,440202.200,101667.700,217168.000,199986.300,713303.500,0.000
192894.000,198439.500,207296.400,440426.800,101615.900,217167.800,199890.500,713304.800,0.000
192914.900,198465.900,207324.300,440624.300,101639.600,217185.200,199923.300,713310.300,0.000
192941.500,198481.800,207358.300,441194.000,101660.500,217192.300,199949.000,713320.600,0.000
192962.300,198486.500,207385.700,441754.800,101671.900,217191.900,199964.500,713331.100,0.000
192963.700,198487.200,207417.400,442715.400,101697.200,217185.500,200016.200,713345.300,0.000
192948.800,198466.800,207328.200,442829.600,101639.500,217174.700,199918.400,713343.600,0.000
192964.900,198490.700,207358.400,442948.400,101669.400,217194.200,199963.900,713349.300,0.000
192972.200,198495.400,207377.300,443384.400,101683.600,217202.700,199984.500,713355.700,0.000
192990.600,198507.100,207404.900,443772.100,101699.300,217213.200,200000.800,713362.800,0.000
192991.100,198513.800,207445.800,444564.200,101736.000,217216.000,200064.000,713378.500,0.000
192975.800,198502.900,207367.100,444517.000,101689.400,217220.300,199980.400,713374.400,0.000
192991.400,198528.100,207403.200,444510.300,101724.200,217241.800,200036.400,713375.900,0.000
193002.800,198533.700,207427.500,444878.300,101740.500,217243.200,200059.500,713382.000,0.000
193021.500,198537.100,207451.700,445203.500,101749.700,217241.000,200069.600,713389.100,0.000
193026.100,198545.900,207493.900,445946.600,101787.400,217245.700,200140.800,713403.500,0.000
192998.800,198517.800,207400.400,445853.300,101727.700,217230.500,200049.300,713397.600,0.000
192994.600,198521.200,207416.300,445778.600,101746.800,217234.000,200093.400,713394.900,0.000
192998.300,198523.500,207433.400,446066.200,101758.000,217233.900,200109.500,713401.600,0.000
193007.900,198525.400,207452.000,446300.300,101763.800,217233.400,200112.300,713406.100,0.000
193008.000,198536.300,207496.800,446969.100,101805.200,217238.700,200187.400,713416.100,0.000
192993.600,198526.900,207422.500,446833.800,101763.400,217239.100,200114.100,713411.100,0.000
193007.700,198549.800,207462.500,446765.700,101801.100,217257.300,200180.900,713410.400,0.000
193017.700,198550.100,207481.800,447063.000,101810.900,217254.900,200196.800,713415.300,0.000
193033.700,198555.700,207505.000,447323.200,101818.000,217258.600,200206.000,713419.100,0.000
193036.200,198565.700,207550.600,448019.100,101859.900,217261.100,200286.800,713431.100,0.000
193012.100,198540.600,207466.800,447887.700,101812.400,217254.800,200213.100,713422.400,0.000
193003.800,198542.200,207489.100,447784.500,101836.700,217259.100,200266.200,713420.100,0.000
193000.300,198543.000,207505.200,448019.400,101846.000,217260.500,200278.200,713422.800,0.000
193008.300,198543.000,207525.300,448188.300,101847.800,217262.800,200275.200,713422.500,0.000
193009.900,198551.400,207570.200,448789.900,101887.300,217264.400,200349.000,713432.700,0.000
192990.900,198535.900,207482.000,448475.500,101830.900,217257.500,200249.600,713421.900,0.000
193000.700,198550.800,207504.000,448086.200,101851.600,217267.500,200286.700,713414.000,0.000
193011.700,198553.600,207517.900,448082.000,101854.100,217266.100,200284.300,713411.500,0.000
193040.900,198567.600,207545.300,448083.000,101859.200,217271.000,200276.000,713410.500,0.000
193056.800,198586.200,207601.200,448564.700,101907.100,217280.200,200357.600,713420.300,0.000
193037.500,198567.200,207522.200,448273.700,101864.200,217283.000,200288.800,713412.000,0.000
193031.500,198573.500,207546.800,448072.800,101894.100,217292.200,200355.700,713409.400,0.000
193035.900,198577.500,207569.800,448336.500,101906.300,217289.600,200373.200,713415.500,0.000
193045.000,198577.500,207589.500,448644.600,101909.300,217290.300,200375.300,713419.400,0.000
193036.200,198577.500,207629.200,449394.600,101946.900,217286.000,200461.300,713432.800,0.000
193018.300,198566.000,207553.400,449327.200,101906.000,217285.400,200398.200,713428.600,0.000
193035.700,198594.500,207595.200,449277.300,101947.700,217302.600,200475.600,713432.900,0.000
193058.900,198608.000,207627.800,449627.100,101966.900,217312.900,200503.300,713441.000,0.000
193072.100,198601.000,207645.100,450000.100,101964.500,217308.900,200496.100,713444.800,0.000
193066.100,198604.600,207682.400,450757.900,102000.800,217304.700,200574.800,713458.600,0.000
193040.000,198582.500,207593.400,450617.300,101948.400,217293.600,200497.900,713454.900,0.000
193042.500,198597.400,207618.600,450435.900,101980.200,217305.400,200562.600,713456.400,0.000
193053.600,198606.300,207640.400,450650.000,101995.000,217314.800,200578.800,713462.600,0.000
193068.000,198610.300,207660.000,450900.300,101998.000,217321.200,200571.500,713467.900,0.000
193062.000,198616.800,207701.600,451531.400,102037.000,217323.300,200653.800,713480.800,0.000
193031.700,198593.700,207610.400,451273.600,101982.200,217312.300,200573.000,713476.100,0.000
193023.000,198599.900,207625.500,450969.600,102001.300,217314.000,200628.300,713474.700,0.000
193030.500,198601.200,207644.000,451098.800,102004.900,217308.000,200630.800,713480.100,0.000
193050.300,198599.800,207660.400,451285.600,101999.400,217305.600,200610.600,713484.300,0.000
193056.700,198611.200,207703.600,451794.300,102039.600,217310.700,200689.500,713495.700,0.000
193037.400,198596.300,207613.600,451341.800,101988.400,217309.100,200609.200,713487.200,0.000
193031.400,198601.400,207624.300,450777.300,102006.000,217315.900,200660.700,713482.400,0.000
193033.600,198598.300,207633.300,450641.900,102004.800,217315.600,200656.800,713484.400,0.000
193042.100,198597.900,207643.700,450606.400,101994.100,217314.700,200627.800,713485.500,0.000
193033.100,198601.000,207675.900,450882.300,102024.100,217313.400,200694.100,713491.900,0.000
193004.300,198578.800,207577.900,450205.800,101965.900,217308.900,200606.800,713480.600,0.000
193000.600,198585.800,207588.100,449438.300,101982.200,217313.300,200653.500,713473.800,0.000
193008.300,198583.700,207600.200,449137.800,101976.100,217307.300,200635.600,713471.200,0.000
193038.300,198598.800,207628.100,449013.600,101976.400,217319.200,200611.000,713472.000,0.000
193034.000,198603.100,207660.900,449190.900,102000.700,217312.600,200667.400,713477.100,0.000
193005.400,198579.300,207563.500,448421.900,101939.300,217301.500,200572.700,713464.700,0.000
193009.600,198597.400,207582.300,447553.800,101965.600,217314.300,200625.800,713455.900,0.000
193023.200,198603.100,207601.600,447194.200,101969.200,217314.500,200615.000,713454.200,0.000
193038.900,198600.700,207615.200,447041.800,101956.900,217310.300,200572.300,713452.600,0.000
193037.500,198610.400,207648.500,447180.900,101991.300,217317.600,200644.800,713455.900,0.000
193012.600,198590.700,207551.800,446370.700,101934.300,217308.900,200558.000,713441.600,0.000
193011.500,198601.100,207563.700,445451.300,101954.400,217316.300,200607.500,713429.600,0.000
193023.600,198601.300,207586.400,445092.700,101959.400,217316.900,200602.600,713428.800,0.000
193048.000,198609.800,207615.400,445023.800,101957.800,217318.200,200573.300,713429.400,0.000
193045.300,198613.000,207652.200,445239.400,101990.500,217317.300,200643.500,713435.100,0.000
193020.800,198593.000,207555.100,444474.800,101936.800,217314.700,200560.300,713420.900,0.000
193023.700,198610.800,207567.100,443567.100,101961.300,217330.800,200611.500,713412.400,0.000
193036.200,198616.900,207585.900,443225.400,101963.600,217327.500,200598.000,713409.900,0.000
193061.400,198624.300,207610.700,443193.900,101957.600,217331.900,200560.700,713410.600,0.000
193065.100,198632.600,207646.900,443413.000,101991.800,217336.300,200624.400,713414.800,0.000
193031.500,198601.100,207538.400,442614.500,101925.000,217324.100,200521.600,713398.500,0.000
193026.500,198610.000,207544.700,441656.500,101940.300,217333.200,200561.200,713383.300,0.000
193047.800,198623.300,207577.400,441296.400,101951.900,217341.800,200553.200,713379.400,0.000
193068.700,198628.000,207602.000,441279.200,101944.800,217343.400,200511.700,713377.100,0.000
193066.000,198633.700,207636.900,441494.800,101976.500,217343.900,200573.900,713377.700,0.000
193048.100,198621.300,207545.300,440711.000,101927.600,217345.400,200481.900,713361.900,0.000
193051.100,198640.300,207559.100,439761.800,101954.900,217363.200,200529.000,713350.300,0.000
193064.400,198642.900,207583.300,439436.600,101961.100,217361.500,200517.700,713344.900,0.000
193091.100,198652.800,207615.300,439532.600,101960.200,217365.400,200488.100,713341.800,0.000
193095.800,198659.500,207655.000,439857.100,101995.600,217369.400,200556.000,713348.400,0.000
193073.100,198635.000,207560.700,439147.100,101937.500,217360.400,200460.600,713334.600,0.000
193077.100,198649.500,207576.500,438250.600,101959.100,217370.100,200504.900,713319.100,0.000
193100.100,198663.900,207614.600,438012.200,101976.600,217381.500,200512.000,713315.800,0.000
193117.900,198667.600,207643.100,438228.600,101971.800,217380.200,200485.600,713315.600,0.000
193118.300,198681.700,207682.200,438652.100,102011.000,217389.100,200563.000,713321.400,0.000
193094.000,198662.600,207585.400,438013.900,101956.900,217382.000,200474.400,713307.700,0.000
193092.300,198670.400,207592.200,437154.300,101973.500,217387.600,200512.200,713296.900,0.000
193107.400,198676.200,207623.800,436957.800,101983.100,217390.000,200510.500,713295.100,0.000
193127.600,198677.700,207657.200,437255.800,101982.400,217386.900,200486.400,713295.900,0.000
193128.000,198686.700,207696.300,437734.700,102018.700,217389.900,200557.700,713302.300,0.000
193115.800,198679.200,207610.000,437128.700,101972.600,217395.800,200474.200,713289.700,0.000
193115.300,198690.800,207613.700,436265.400,101987.800,217402.100,200513.200,713278.600,0.000
193128.400,198696.100,207639.200,436044.600,101995.600,217405.700,200513.800,713276.800,0.000
193144.000,198694.700,207661.400,436304.800,101986.900,217403.300,200482.700,713277.400,0.000
193136.100,198696.200,207682.400,436685.300,102012.800,217400.100,200541.000,713281.300,0.000
193114.400,198679.200,207579.000,435942.500,101955.500,217396.700,200446.300,713266.600,0.000
193118.100,198693.400,207588.200,434962.700,101978.000,217411.600,200494.100,713255.600,0.000
193131.700,198700.700,207625.000,434713.700,101995.200,217420.400,200509.300,713254.100,0.000
193145.500,198702.900,207661.200,435056.900,101997.700,217421.900,200496.000,713257.000,0.000
193136.200,198703.700,207691.900,435551.200,102026.200,217415.700,200562.000,713264.900,0.000
193111.100,198687.200,207591.000,434919.900,101967.500,217408.800,200468.000,713253.100,0.000
193113.000,198700.300,207597.300,434033.900,101984.800,217417.800,200511.200,713241.900,0.000
193134.900,198710.500,207634.600,433875.600,102003.000,217424.400,200524.600,713244.600,0.000
193151.500,198708.800,207667.300,434311.200,102001.300,217419.300,200507.200,713247.300,0.000
193146.300,198712.400,207696.200,434861.300,102027.800,217413.500,200569.000,713254.800,0.000
193112.300,198684.000,207583.000,434237.600,101955.600,217398.500,200461.200,713239.600,0.000
193109.200,198698.300,207587.500,433345.200,101973.200,217410.200,200501.800,713227.900,0.000
193125.900,198708.500,207627.100,433204.400,101991.700,217415.100,200510.500,713229.300,0.000
193148.400,198713.700,207672.200,433706.800,102000.700,217418.000,200499.800,713233.900,0.000
193146.700,198719.900,207707.900,434306.400,102035.100,217419.300,200567.700,713241.900,0.000
193125.300,198701.300,207607.300,433728.700,101975.600,217414.400,200470.400,713230.500,0.000
193133.200,198718.700,207617.600,432863.100,101998.400,217429.600,200514.300,713223.200,0.000
193150.300,198724.800,207654.100,432749.000,102014.400,217434.500,200524.800,713224.200,0.000
193165.500,198721.600,207688.700,433304.300,102014.800,217430.500,200509.500,713228.600,0.000
193162.100,198725.700,207722.200,433940.900,102046.800,217431.400,200575.300,713239.200,0.000
193128.600,198699.300,207611.400,433368.000,101978.500,217421.100,200469.500,713226.100,0.000
193121.900,198710.400,207609.500,432490.500,101989.600,217428.700,200505.300,713214.900,0.000
193135.400,198715.000,207645.800,432388.800,102005.600,217431.800,200517.700,713213.000,0.000
193160.500,198719.400,207690.300,432987.700,102014.500,217432.400,200510.200,713216.400,0.000
193162.000,198726.600,207723.500,433650.600,102047.700,217429.700,200571.900,713228.600,0.000
193141.300,198707.100,207618.600,433081.800,101984.000,217420.900,200466.100,713217.300,0.000
193139.600,198718.700,207615.800,432175.200,101990.500,217425.600,200493.200,713204.800,0.000
193161.200,198733.500,207657.300,432063.200,102009.700,217436.000,200511.600,713206.300,0.000
193183.500,198738.000,207702.700,432683.100,102017.800,217439.700,200508.000,713213.200,0.000
193174.700,198740.300,207728.300,433338.700,102045.500,217437.600,200568.100,713222.400,0.000
193148.400,198716.500,207619.900,432749.800,101982.100,217431.300,200463.700,713209.100,0.000
193146.400,198723.500,207621.700,431822.100,101995.400,217437.300,200493.000,713195.600,0.000
193159.200,198727.500,207657.500,431694.800,102009.300,217440.500,200506.300,713197.800,0.000
193184.000,198734.600,207701.800,432316.000,102016.600,217442.900,200503.600,713205.600,0.000
193196.100,198755.600,207742.700,432973.200,102056.600,217455.200,200575.400,713218.800,0.000
193173.600,198739.100,207635.500,432359.800,101993.200,217450.300,200471.300,713209.000,0.000
193165.000,198746.000,207629.000,431383.700,102000.100,217456.100,200497.500,713195.800,0.000
193173.500,198744.100,207662.000,431216.000,102011.300,217453.700,200507.500,713193.100,0.000
193185.300,198738.200,207697.400,431817.200,102012.600,217444.900,200497.700,713196.600,0.000
193175.500,198738.800,207718.900,432435.100,102033.800,217435.800,200547.700,713199.400,0.000
193146.900,198709.800,207608.000,431798.100,101967.900,217425.500,200436.700,713181.400,0.000
193141.600,198716.400,207605.700,430822.600,101979.000,217433.000,200465.300,713168.400,0.000
193155.100,198724.100,207642.900,430683.700,101996.700,217438.700,200485.700,713169.300,0.000
193179.300,198730.300,207689.800,431352.800,102010.500,217442.300,200492.800,713179.900,0.000
193181.600,198740.800,207724.100,432033.000,102043.700,217443.800,200555.700,713194.300,0.000
193165.500,198729.500,207621.400,431432.400,101984.200,217443.100,200449.700,713183.300,0.000
193168.300,198743.500,207624.400,430464.900,101999.100,217455.200,200475.900,713171.300,0.000
193189.200,198755.600,207670.300,430337.800,102020.100,217463.100,200499.500,713169.400,0.000
193215.900,198764.800,207721.100,431034.100,102032.500,217466.700,200507.200,713180.600,0.000
193206.300,198766.600,207743.900,431716.300,102057.300,217463.100,200564.700,713191.000,0.000
193178.900,198746.300,207632.200,431106.300,101992.700,217460.200,200457.100,713177.500,0.000
193177.700,198759.900,207631.300,430112.200,102006.100,217475.200,200485.000,713165.000,0.000
193185.200,198753.600,207663.200,429965.400,102017.900,217467.000,200498.800,713165.800,0.000
193206.100,198756.500,207708.600,430653.800,102029.400,217466.800,200507.000,713175.000,0.000
193207.000,198765.700,207742.000,431333.600,102061.300,217467.200,200568.600,713186.600,0.000
193180.500,198742.700,207631.000,430705.500,101994.900,217458.900,200455.400,713171.700,0.000
193176.500,198753.700,207626.500,429687.800,102003.400,217468.900,200480.800,713158.000,0.000
193198.000,198765.500,207672.700,429539.100,102025.500,217475.400,200506.900,713160.300,0.000
193223.300,198773.100,207723.400,430237.300,102041.100,217479.400,200518.900,713171.600,0.000
193222.500,198782.600,207752.900,430922.300,102072.700,217482.400,200577.700,713179.600,0.000
193196.500,198762.400,207639.600,430301.200,102005.300,217475.200,200460.800,713165.600,0.000
193195.400,198772.600,207635.100,429280.700,102013.900,217484.000,200478.200,713152.300,0.000
193204.800,198770.000,207672.000,429129.500,102026.300,217479.800,200494.500,713151.500,0.000
193223.300,198769.900,207718.300,429842.800,102034.900,217475.200,200500.300,713162.800,0.000
193220.700,198777.000,207748.100,430537.600,102065.900,217480.000,200564.300,713174.300,0.000
193189.200,198751.800,207631.100,429915.900,101996.000,217469.700,200452.300,713159.800,0.000
193185.200,198758.800,207620.700,428886.500,102000.400,217474.700,200468.900,713144.500,0.000
193195.300,198760.000,207657.000,428739.000,102015.900,217474.500,200489.900,713142.600,0.000
193212.800,198757.800,207702.900,429472.600,102025.300,217468.400,200500.600,713154.000,0.000
193216.900,198769.200,207736.500,430183.800,102057.000,217472.300,200563.600,713165.700,0.000
193193.200,198751.400,207625.900,429566.200,101992.400,217468.000,200452.200,713153.000,0.000
193188.000,198759.600,207619.400,428526.000,101995.800,217474.300,200464.800,713138.500,0.000
193201.900,198768.700,207665.500,428378.400,102017.700,217479.800,200493.600,713136.900,0.000
193229.300,198781.500,207724.800,429139.100,102039.400,217486.500,200514.400,713155.100,0.000
193229.000,198789.100,207758.200,429867.800,102071.400,217488.700,200574.100,713172.500,0.000
193194.600,198761.700,207639.100,429255.300,101999.000,217475.800,200453.400,713156.700,0.000
193188.000,198769.400,207628.800,428223.500,102003.300,217485.900,200473.000,713138.700,0.000
193199.100,198771.000,207667.800,428094.800,102019.900,217484.600,200499.100,713139.900,0.000
193220.100,198771.200,207716.700,428873.500,102032.200,217479.500,200512.100,713154.900,0.000
193217.800,198776.200,207746.500,429614.800,102061.600,217478.900,200569.100,713164.100,0.000
193191.900,198755.700,207632.300,429018.900,101994.000,217471.700,200453.800,713149.100,0.000
193193.900,198771.000,207630.800,428002.000,102004.300,217484.400,200475.200,713137.600,0.000
193211.500,198781.900,207682.500,427897.400,102034.400,217494.400,200515.500,713140.500,0.000
193227.800,198788.300,207735.600,428702.700,102053.900,217496.400,200537.500,713152.800,0.000
193213.100,198786.300,207754.900,429457.100,102075.600,217492.000,200589.400,713162.800,0.000
193185.500,198764.500,207640.200,428881.400,102008.200,217486.200,200476.600,713150.100,0.000
193182.100,198773.500,207629.700,427864.200,102011.700,217493.300,200489.800,713136.100,0.000
193201.400,198782.400,207677.000,427763.500,102035.600,217499.300,200524.800,713138.200,0.000
193223.400,198785.100,207726.800,428576.800,102051.300,217496.400,200545.000,713151.300,0.000
193219.800,198790.300,207754.900,429334.900,102076.800,217494.300,200598.200,713164.300,0.000
193196.300,198763.200,207641.800,428743.000,102006.700,217484.400,200478.300,713151.600,0.000
193194.500,198769.600,207630.800,427708.500,102009.600,217490.400,200486.300,713136.300,0.000
193206.800,198776.600,207673.500,427593.800,102030.200,217490.500,200514.800,713139.100,0.000
193222.000,198781.700,207724.900,428414.200,102046.900,217491.300,200539.100,713152.300,0.000
193212.400,198786.100,207749.300,429172.200,102071.900,217489.700,200591.900,713163.800,0.000
193186.500,198768.100,207636.400,428583.100,102005.600,217487.100,200477.500,713153.300,0.000
193185.100,198778.900,207627.100,427547.400,102010.800,217499.400,200494.500,713137.800,0.000
193198.300,198780.600,207666.900,427427.800,102026.900,217497.600,200521.400,713138.900,0.000
193216.200,198776.200,207712.800,428248.500,102035.000,217488.600,200536.600,713151.500,0.000
193215.600,198780.300,207739.500,429012.300,102062.400,217489.300,200594.000,713162.700,0.000
193194.000,198756.500,207628.200,428426.900,101994.400,217478.100,200475.600,713151.900,0.000
193184.100,198757.600,207613.000,427380.400,101989.700,217473.900,200475.800,713132.400,0.000
193195.300,198762.400,207657.900,427270.000,102014.700,217478.200,200510.500,713132.100,0.000
193216.600,198771.800,207716.600,428117.400,102040.300,217486.100,200544.700,713147.400,0.000
193208.800,198780.600,207746.100,428903.200,102070.900,217489.500,200604.300,713162.800,0.000
193176.300,198757.800,207629.900,428326.800,102000.300,217480.300,200483.400,713151.600,0.000
193175.300,198771.200,207621.700,427292.900,102006.600,217491.100,200494.900,713137.100,0.000
193189.100,198773.600,207663.900,427176.400,102025.300,217488.100,200523.200,713135.800,0.000
193202.800,198763.000,207706.800,428019.100,102031.200,217473.100,200537.600,713148.600,0.000
193201.600,198769.700,207730.500,428804.500,102053.600,217467.200,200583.900,713164.200,0.000
193172.900,198745.100,207611.300,428211.500,101981.300,217462.200,200462.500,713149.300,0.000
193170.300,198758.100,207603.100,427160.300,101988.900,217480.500,200479.900,713132.400,0.000
193188.500,198770.600,207657.800,427039.700,102019.900,217490.700,200521.500,713134.600,0.000
193203.800,198769.300,207711.900,427880.200,102037.300,217478.900,200541.600,713149.400,0.000
193198.900,198773.300,207738.500,428649.300,102061.600,217474.000,200588.000,713160.900,0.000
193174.900,198753.400,207626.300,428043.300,101993.500,217474.100,200468.300,713146.600,0.000
193173.000,198764.400,207619.000,426979.000,101998.800,217484.800,200480.000,713131.300,0.000
193194.700,198773.800,207670.100,426850.800,102022.600,217483.700,200510.100,713132.700,0.000
193222.400,198781.900,207729.000,427697.100,102044.100,217485.400,200538.600,713148.400,0.000
193216.500,198783.700,207750.800,428469.600,102067.800,217482.300,200591.100,713160.800,0.000
193185.800,198755.800,207630.100,427859.900,101990.500,217469.700,200463.700,713147.800,0.000
193186.200,198765.800,207622.100,426790.500,101993.900,217480.200,200472.700,713134.100,0.000
193204.400,198776.200,207674.300,426661.000,102023.300,217489.100,200516.100,713133.700,0.000
193221.200,198781.200,207729.300,427506.000,102043.700,217488.200,200544.100,713146.900,0.000
193215.100,198789.800,207756.400,428283.500,102071.200,217491.300,200599.200,713158.600,0.000
193187.200,198765.000,207638.200,427686.200,102000.600,217486.400,200480.000,713145.800,0.000
193175.000,198765.700,207618.900,426607.500,101996.100,217488.400,200480.200,713127.400,0.000
193183.300,198767.400,207659.500,426467.400,102015.700,217486.400,200510.900,713126.800,0.000
193205.300,198773.000,207715.900,427323.800,102038.700,217487.400,200543.100,713141.300,0.000
193201.900,198774.000,207742.100,428113.100,102065.300,217482.800,200595.700,713154.400,0.000
193178.800,198754.700,207629.300,427527.100,101997.400,217474.700,200476.000,713142.600,0.000
193179.300,198765.900,207619.900,426457.300,102000.000,217484.500,200481.200,713126.300,0.000
193193.600,198769.400,207664.300,426332.300,102018.600,217481.900,200511.600,713126.000,0.000
193216.600,198777.100,207723.400,427203.800,102040.100,217487.000,200545.600,713140.300,0.000
193210.800,198784.400,207750.200,428007.700,102066.700,217488.600,200600.700,713155.100,0.000
193182.600,198760.700,207630.400,427424.000,101994.000,217478.600,200473.800,713141.400,0.000
193188.800,198780.700,207624.600,426367.400,102001.600,217495.000,200485.300,713127.900,0.000
193201.100,198787.400,207670.600,426239.000,102022.800,217496.300,200521.800,713127.200,0.000
193220.500,198787.800,207726.500,427114.200,102040.300,217493.300,200549.900,713142.600,0.000
193218.900,198792.500,207755.400,427926.700,102070.300,217492.100,200605.100,713158.000,0.000
193188.300,198762.500,207632.900,427333.500,101993.800,217479.800,200477.800,713144.300,0.000
193182.900,198768.300,207616.900,426259.000,101990.400,217485.600,200479.200,713127.800,0.000
193200.400,198782.000,207667.900,426140.800,102019.400,217492.400,200519.800,713126.900,0.000
193221.400,198785.800,207727.800,427024.400,102041.000,217489.900,200550.000,713142.800,0.000
193216.700,198794.200,207757.100,427838.900,102068.900,217491.700,200607.300,713157.400,0.000
193180.200,198767.500,207631.300,427244.800,101991.200,217484.200,200483.400,713143.500,0.000
193171.700,198768.900,207611.400,426170.100,101985.000,217487.900,200481.300,713125.600,0.000
193193.600,198778.700,207663.700,426059.000,102016.700,217493.700,200524.300,713128.400,0.000
193215.700,198778.500,207720.600,426949.700,102036.400,217486.700,200552.000,713143.900,0.000
193213.500,198783.700,207747.600,427770.400,102064.400,217485.000,200605.200,713155.900,0.000
193187.100,198761.100,207629.700,427191.100,101994.700,217480.100,200481.800,713142.800,0.000
193182.900,198770.600,207617.600,426131.200,101993.800,217484.600,200485.000,713127.400,0.000
193192.500,198778.100,207663.300,426021.100,102015.500,217486.000,200523.600,713127.400,0.000
193210.200,198783.800,207719.600,426927.100,102037.000,217488.900,200559.800,713144.100,0.000
193207.700,198790.400,207750.000,427759.500,102067.700,217493.300,200618.500,713157.300,0.000
193184.800,198765.800,207633.100,427186.500,101997.300,217486.000,200495.200,713146.200,0.000
193181.800,198770.100,207614.500,426120.700,101992.600,217490.300,200494.600,713130.800,0.000
193201.000,198780.000,207664.900,426020.700,102019.800,217495.900,200537.000,713131.600,0.000
193217.400,198775.500,207718.200,426923.800,102036.400,217484.100,200563.500,713147.000,0.000
193216.100,198785.500,207749.500,427764.200,102066.900,217483.400,200615.500,713161.400,0.000
193190.900,198768.300,207636.000,427198.100,101999.800,217481.100,200493.200,713149.300,0.000
193187.500,198778.200,207626.300,426145.600,102004.500,217492.000,200501.800,713135.100,0.000
193199.800,198786.300,207676.600,426049.700,102031.900,217497.800,200546.700,713136.600,0.000
193216.700,198787.900,207732.500,426955.100,102049.500,217493.300,200574.900,713149.900,0.000
193214.100,198793.500,207762.400,427808.300,102076.800,217494.400,200629.800,713165.400,0.000
193187.200,198765.600,207640.100,427249.500,101998.900,217481.300,200500.000,713153.300,0.000
193186.100,198770.400,207623.000,426194.100,101994.500,217483.700,200495.900,713136.300,0.000
193215.500,198788.000,207683.000,426092.900,102029.500,217493.300,200543.800,713138.500,0.000
193233.700,198793.700,207739.000,426969.800,102048.100,217493.700,200575.400,713152.400,0.000
193227.700,198798.900,207764.900,427780.000,102071.400,217492.400,200626.900,713164.400,0.000
193199.500,198774.400,207644.500,427189.600,101996.700,217484.400,200497.400,713152.800,0.000
193196.800,198784.800,207631.800,426104.600,101997.500,217494.200,200498.400,713137.300,0.000
193207.900,198786.400,207679.200,425983.400,102020.900,217495.200,200536.900,713136.800,0.000
193224.500,198786.400,207734.800,426879.500,102042.100,217489.300,200568.100,713150.600,0.000
193220.600,198789.500,207761.400,427706.100,102067.500,217485.600,200620.600,713164.300,0.000
193197.800,198769.800,207641.800,427125.000,101995.100,217480.100,200495.600,713151.900,0.000
193202.000,198786.000,207631.500,426049.100,101999.400,217495.000,200503.700,713138.300,0.000
193221.100,198799.300,207688.300,425932.600,102029.400,217502.300,200549.900,713139.900,0.000
193241.200,198803.500,207746.100,426828.600,102049.900,217496.500,200579.900,713155.800,0.000
193231.100,198803.600,207767.600,427648.000,102072.600,217492.700,200626.800,713165.300,0.000
193200.800,198777.500,207645.700,427063.800,101997.100,217484.500,200498.600,713153.100,0.000
193199.600,198784.700,207633.100,425988.600,101996.400,217492.900,200503.900,713138.100,0.000
193216.500,198793.100,207685.100,425888.200,102022.200,217496.100,200550.800,713142.400,0.000
193229.000,198788.600,207731.800,426802.700,102037.400,217486.900,200579.000,713155.800,0.000
193220.000,198786.000,207749.500,427642.000,102058.300,217480.300,200625.300,713168.900,0.000
193194.200,198764.200,207628.600,427078.600,101985.200,217475.200,200497.900,713157.800,0.000
193191.700,198775.400,207615.900,426019.300,101985.200,217486.400,200498.100,713140.300,0.000
193210.400,198787.800,207673.500,425937.300,102015.100,217488.800,200541.200,713142.400,0.000
193232.700,198792.300,207735.700,426870.100,102037.500,217483.300,200572.400,713158.600,0.000
193230.800,198797.000,207764.700,427730.000,102061.900,217480.400,200625.700,713171.300,0.000
193199.100,198769.000,207639.600,427173.500,101982.400,217469.900,200494.400,713159.500,0.000
193194.800,198777.600,207623.100,426116.600,101980.000,217477.300,200495.500,713146.300,0.000
193207.500,198783.900,207673.300,426019.300,102005.700,217481.100,200540.100,713148.200,0.000
193222.500,198783.500,207726.900,426936.800,102025.200,217478.300,200571.800,713162.700,0.000
193215.900,198785.500,207749.900,427782.000,102051.000,217475.800,200625.300,713175.600,0.000
193187.500,198757.400,207626.500,427207.600,101975.200,217467.400,200493.000,713162.800,0.000
193186.600,198770.400,207615.200,426131.200,101975.200,217475.700,200492.900,713146.700,0.000
193199.800,198776.700,207667.400,426021.900,102000.000,217476.100,200533.900,713148.000,0.000
193227.300,198787.800,207737.300,426953.500,102030.300,217481.200,200573.600,713163.800,0.000
193227.800,198797.000,207770.300,427800.700,102060.700,217483.300,200627.200,713178.800,0.000
193200.300,198772.100,207650.300,427232.500,101987.900,217472.600,200500.500,713166.700,0.000
193198.800,198781.300,207636.600,426168.500,101992.100,217483.200,200505.300,713150.400,0.000
193209.100,198784.400,207682.400,426069.300,102015.200,217481.200,200543.300,713152.600,0.000
193220.500,198777.000,207729.300,426993.600,102028.100,217471.300,200570.300,713167.100,0.000
193208.800,198775.100,207743.900,427831.100,102046.500,217464.300,200614.200,713177.500,0.000
193177.600,198752.000,207617.200,427272.100,101969.000,217453.700,200481.800,713165.100,0.000
193169.400,198760.400,207597.700,426205.400,101963.800,217463.600,200482.300,713149.300,0.000
193190.000,198776.400,207656.600,426098.800,101997.100,217474.700,200532.600,713152.200,0.000
193214.900,198783.400,207722.300,427023.400,102023.900,217474.500,200567.800,713169.000,0.000
193211.400,198785.600,207749.200,427853.200,102049.000,217472.500,200617.500,713179.200,0.000
193191.000,198766.200,207635.000,427264.300,101980.600,217471.200,200493.000,713166.400,0.000
193182.300,198768.800,207612.100,426155.600,101971.400,217473.900,200483.400,713148.600,0.000
193194.000,198777.000,207660.000,426016.700,101994.300,217474.900,200519.700,713149.900,0.000
193219.500,198787.600,207723.500,426918.000,102023.000,217481.500,200561.900,713166.700,0.000
193214.200,198788.600,207746.400,427735.000,102050.100,217481.300,200615.700,713180.800,0.000
193182.200,198765.800,207621.400,427138.500,101974.700,217472.700,200485.200,713167.600,0.000
193173.900,198774.500,207602.900,426037.300,101969.400,217478.800,200481.400,713150.300,0.000
193188.900,198780.400,207654.800,425898.300,101996.000,217480.200,200524.500,713147.600,0.000
193218.200,198784.400,207722.800,426805.100,102024.700,217479.000,200564.800,713162.900,0.000
193219.600,198787.100,207753.000,427640.900,102050.800,217472.300,200614.300,713176.200,0.000
193191.100,198757.000,207626.300,427048.700,101970.700,217457.400,200479.100,713161.100,0.000
193188.000,198766.000,207607.800,425952.200,101968.500,217470.200,200480.500,713145.400,0.000
193208.700,198782.700,207666.000,425826.000,102001.700,217481.000,200532.700,713146.900,0.000
193234.100,198792.400,207730.300,426736.500,102030.000,217485.400,200575.500,713163.100,0.000
193230.800,198802.800,207758.000,427561.600,102061.000,217494.200,200630.400,713179.200,0.000
193199.400,198784.200,207634.100,426946.600,101986.600,217494.700,200499.900,713168.600,0.000
193199.100,198791.300,207617.600,425818.500,101984.800,217505.500,200500.600,713152.000,0.000
193223.600,198805.600,207677.000,425666.400,102019.400,217516.500,200554.200,713153.800,0.000
193247.700,198806.100,207738.300,426555.900,102040.800,217507.000,200585.800,713169.800,0.000
193230.000,198789.200,207748.600,427347.700,102047.400,217485.300,200618.500,713176.600,0.000
193190.400,198750.500,207610.200,426712.800,101954.400,217459.200,200469.000,713156.500,0.000
193185.300,198757.200,207588.600,425577.400,101944.000,217460.900,200457.000,713136.300,0.000
193205.600,198771.300,207645.600,425428.900,101974.600,217467.200,200498.300,713135.100,0.000
193234.600,198784.600,207716.000,426335.800,102007.600,217474.900,200543.800,713149.100,0.000
193234.200,198794.300,207746.300,427164.800,102037.600,217475.000,200596.500,713162.800,0.000
193206.300,198770.900,207622.600,426553.800,101961.800,217464.500,200459.900,713150.800,0.000
193209.400,198786.600,207610.100,425430.800,101966.300,217478.800,200459.500,713135.100,0.000
193227.800,198800.500,207667.800,425285.000,102000.600,217488.100,200509.500,713136.800,0.000
193250.300,198808.700,207732.200,426190.400,102028.600,217492.200,200554.300,713153.800,0.000
193244.000,198806.800,207753.900,427016.200,102049.000,217483.600,200603.400,713166.100,0.000
193215.800,198776.100,207626.800,426406.100,101968.100,217469.800,200466.100,713152.600,0.000
193218.000,198784.400,207613.400,425280.000,101965.400,217478.700,200462.400,713135.500,0.000
193238.100,198793.400,207671.500,425136.300,101997.500,217485.400,200509.100,713138.300,0.000
193256.600,198799.600,207732.600,426044.900,102022.800,217489.100,200554.100,713153.300,0.000
193245.100,198802.700,207752.500,426871.500,102045.900,217490.000,200607.700,713166.500,0.000
193214.000,198776.700,207624.800,426260.200,101965.900,217480.700,200473.900,713154.500,0.000
193202.800,198781.000,207600.600,425123.800,101954.000,217483.200,200463.000,713134.500,0.000
193212.500,198784.400,207650.000,424975.000,101977.700,217480.200,200504.600,713134.300,0.000
193231.400,198786.500,207712.200,425894.000,102005.400,217479.900,200550.500,713150.500,0.000
193232.700,198798.600,207747.200,426740.000,102040.700,217487.300,200612.500,713163.800,0.000
193208.400,198774.600,207627.600,426135.900,101965.500,217482.100,200477.400,713149.600,0.000
193209.700,198783.300,207609.400,425005.900,101959.700,217489.300,200468.900,713134.600,0.000
193229.900,198796.700,207665.500,424864.000,101992.200,217496.600,200521.600,713137.100,0.000
193245.800,198798.800,207725.700,425783.300,102016.000,217493.800,200562.700,713152.400,0.000
193233.700,198800.400,207746.800,426628.900,102038.700,217492.300,200612.500,713165.100,0.000
193208.100,198779.300,207623.000,426022.800,101963.100,217488.600,200481.300,713153.400,0.000
193205.900,198789.400,207602.700,424880.400,101957.300,217494.900,200473.500,713137.000,0.000
193218.000,198795.700,207653.900,424722.700,101982.900,217493.600,200518.700,713137.200,0.000
193234.500,198791.300,207712.500,425642.600,102004.200,217486.100,200554.000,713150.300,0.000
193233.600,198794.700,207738.500,426482.900,102030.900,217482.600,200603.500,713162.400,0.000
193204.300,198768.000,207611.100,425864.300,101951.300,217473.500,200465.000,713147.400,0.000
193202.700,198776.600,207594.300,424711.200,101947.200,217483.600,200459.800,713129.900,0.000
193222.300,198789.800,207653.000,424553.100,101980.400,217488.300,200513.800,713129.600,0.000
193248.200,198799.000,207720.300,425477.500,102010.300,217493.900,200565.400,713146.600,0.000
193239.500,198799.000,207740.300,426310.900,102028.600,217489.500,200611.900,713159.100,0.000
193212.800,198771.400,207613.900,425689.300,101946.700,217477.400,200467.900,713146.500,0.000
193209.000,198778.200,207592.500,424525.800,101939.000,217482.800,200453.900,713129.400,0.000
193236.100,198799.100,207658.800,424369.900,101981.300,217499.100,200513.000,713132.500,0.000
193258.200,198806.600,207725.100,425297.400,102012.200,217498.300,200557.700,713147.600,0.000
193252.700,198810.800,207750.800,426144.000,102039.300,217495.300,200605.900,713161.800,0.000
193226.000,198787.600,207626.800,425516.300,101962.300,217489.500,200467.500,713149.300,0.000
193224.800,198795.400,207606.700,424332.300,101955.200,217498.300,200456.300,713129.600,0.000
193244.300,198807.300,207665.700,424154.700,101988.200,217505.400,200508.100,713130.000,0.000
193266.600,198817.800,207733.500,425072.200,102017.800,217506.400,200555.600,713144.600,0.000
193261.600,198825.200,207758.800,425901.700,102041.400,217504.900,200603.800,713156.700,0.000
193231.200,198790.000,207625.100,425257.100,101955.300,217489.500,200457.700,713142.300,0.000
193225.300,198794.000,207600.400,424064.600,101946.800,217498.000,200447.100,713124.300,0.000
193238.700,198802.300,207656.900,423881.400,101978.300,217503.400,200501.300,713123.100,0.000
193268.800,198817.500,207732.700,424817.700,102015.900,217512.400,200559.400,713140.600,0.000
193270.200,198826.300,207762.300,425662.600,102042.700,217512.000,200611.000,713153.600,0.000
193237.000,198794.500,207631.500,425022.700,101956.100,217494.600,200461.500,713139.100,0.000
193235.300,198804.800,207611.600,423830.800,101948.900,217502.400,200447.500,713121.900,0.000
193254.500,198819.300,207669.500,423660.900,101983.100,217507.600,200498.700,713123.500,0.000
193279.800,198829.900,207740.300,424612.000,102019.900,217516.400,200553.500,713140.900,0.000
193273.800,198834.300,207765.800,425461.800,102048.000,217516.500,200609.200,713153.400,0.000
193246.300,198811.200,207638.900,424828.100,101969.100,217508.400,200468.300,713138.800,0.000
193239.300,198813.800,207613.600,423634.700,101956.900,217511.500,200451.700,713120.600,0.000
193250.700,198817.100,207668.500,423461.600,101984.100,217506.000,200498.100,713122.900,0.000
193279.000,198831.700,207744.400,424422.600,102022.000,217517.400,200561.700,713141.500,0.000
193270.500,198832.100,207765.400,425281.600,102046.700,217517.100,200613.700,713155.800,0.000
193230.200,198795.100,207623.700,424644.200,101954.700,217498.100,200460.300,713137.400,0.000
193231.300,198805.900,207602.500,423451.900,101949.000,217506.400,200447.900,713119.400,0.000
193243.500,198811.000,207655.900,423274.200,101976.800,217506.000,200498.800,713119.400,0.000
193263.000,198817.300,207723.500,424235.300,102009.000,217510.900,200555.400,713135.200,0.000
193259.500,198822.400,207749.400,425106.000,102034.600,217510.700,200606.600,713149.500,0.000
193230.900,198796.700,207619.200,424470.300,101951.600,217501.700,200459.500,713135.800,0.000
193227.200,198804.100,207596.100,423266.000,101941.900,217510.600,200444.200,713117.100,0.000
193237.200,198806.700,207648.500,423082.400,101967.400,217507.900,200490.700,713116.000,0.000
193257.100,198811.700,207716.900,424045.000,101996.200,217506.100,200542.100,713129.700,0.000
193253.700,198817.500,207745.600,424912.000,102026.900,217508.200,200599.100,713143.500,0.000
193223.700,198791.200,207613.700,424267.800,101945.000,217499.300,200452.300,713129.500,0.000
193221.400,198798.500,207588.500,423052.700,101934.900,217507.200,200434.000,713109.600,0.000
193242.500,198811.700,207650.500,422877.500,101972.100,217512.500,200491.200,713109.900,0.000
193261.800,198816.500,207719.300,423847.100,102002.900,217508.500,200546.000,713124.900,0.000
193258.900,198819.100,207748.500,424723.300,102029.500,217510.000,200599.000,713140.800,0.000
193223.700,198785.200,207614.000,424087.800,101938.200,217492.500,200441.200,713126.700,0.000
193218.500,198789.300,207587.700,422870.700,101923.600,217491.800,200419.400,713106.300,0.000
193244.000,198808.000,207654.500,422695.500,101963.800,217504.700,200481.700,713106.800,0.000
193267.900,198817.500,207728.100,423682.800,101998.400,217508.400,200537.500,713126.300,0.000
193263.800,198825.400,207754.200,424567.300,102026.500,217511.200,200589.300,713141.900,0.000
193235.200,198801.500,207623.000,423931.600,101944.000,217504.800,200443.500,713126.100,0.000
193229.000,198804.600,207593.700,422712.100,101928.200,217505.600,200421.000,713104.100,0.000
193254.400,198824.100,207661.200,422544.600,101971.500,217516.400,200486.000,713106.300,0.000
193278.900,198826.400,207734.700,423550.700,102007.200,217515.900,200544.400,713125.600,0.000
193280.900,198833.400,207764.200,424453.600,102036.500,217518.200,200597.400,713138.800,0.000
193257.500,198808.200,207635.000,423835.100,101953.400,217507.800,200449.400,713125.100,0.000
193247.700,198807.700,207601.000,422623.300,101933.600,217508.400,200425.900,713104.100,0.000
193263.700,198816.500,207657.200,422453.000,101965.400,217511.600,200483.900,713101.600,0.000
193298.600,198835.700,207739.200,423478.600,102011.800,217523.300,200556.700,713121.600,0.000
193300.000,198842.700,207766.500,424395.800,102037.600,217522.600,200607.000,713136.400,0.000
193268.800,198809.700,207627.900,423769.500,101945.100,217505.100,200449.700,713118.900,0.000
193284.000,198834.100,207618.000,422574.400,101947.400,217526.100,200443.400,713102.300,0.000
193310.500,198851.300,207686.400,422414.600,101987.400,217536.200,200505.500,713104.600,0.000
193341.500,198860.000,207763.000,423426.400,102023.100,217538.000,200563.200,713122.900,0.000
193346.400,198867.300,207790.300,424334.600,102048.800,217538.200,200612.400,713136.300,0.000
193315.500,198835.000,207652.300,423709.200,101957.800,217521.400,200459.700,713117.300,0.000
193315.700,198841.000,207628.500,422512.200,101948.200,217526.600,200443.400,713100.500,0.000
193341.100,198858.400,207696.400,422357.900,101989.000,217534.400,200504.500,713101.900,0.000
193368.300,198870.300,207775.700,423393.100,102029.200,217537.200,200567.000,713122.700,0.000
193362.900,198876.400,207801.100,424323.100,102056.800,217540.700,200623.100,713139.100,0.000
193321.000,198842.700,207660.600,423708.400,101967.100,217530.400,200474.100,713122.300,0.000
193296.800,198834.300,207619.900,422504.400,101945.000,217523.500,200442.800,713104.100,0.000
193309.200,198845.200,207677.800,422354.900,101979.800,217527.500,200502.800,713107.900,0.000
193322.100,198844.900,207741.900,423387.900,102005.100,217518.500,200553.800,713126.700,0.000
193312.500,198843.500,207764.900,424322.200,102025.700,217515.700,200600.900,713140.800,0.000
193274.600,198811.900,207623.500,423709.600,101936.200,217501.900,200447.700,713124.400,0.000
193270.500,198819.900,207596.600,422512.300,101923.900,217507.000,200426.500,713104.200,0.000
193295.600,198837.500,207665.600,422369.600,101967.900,217520.900,200494.800,713107.700,0.000
193311.900,198836.800,207735.200,423406.100,102001.600,217517.600,200553.500,713125.400,0.000
193294.400,198831.400,207752.200,424337.800,102021.100,217507.800,200599.000,713139.100,0.000
193265.300,198810.600,207623.400,423734.200,101943.000,217506.400,200461.100,713127.800,0.000
193268.100,198825.800,207605.900,422541.000,101941.900,217522.600,200449.700,713110.000,0.000
193291.200,198846.000,207673.900,422390.700,101981.700,217533.000,200510.500,713108.100,0.000
193312.900,198850.300,207747.500,423425.700,102014.600,217527.100,200569.200,713124.700,0.000
193304.800,198851.300,207770.300,424356.300,102036.600,217522.100,200617.600,713139.900,0.000
193272.800,198815.200,207631.400,423738.800,101947.900,217509.700,200460.100,713124.400,0.000
193263.900,198814.200,207598.200,422519.600,101928.300,217512.100,200431.000,713105.200,0.000
193281.100,198827.300,207661.700,422357.800,101965.500,217518.300,200493.600,713107.400,0.000
193298.800,198834.200,207735.400,423389.000,102002.100,217520.800,200558.100,713126.100,0.000
193285.700,198830.200,207754.600,424312.800,102022.100,217513.400,200603.000,713140.600,0.000
193250.900,198800.500,207616.000,423688.800,101931.700,217498.900,200447.500,713123.700,0.000
193242.200,198803.400,207585.900,422463.300,101918.300,217504.600,200426.900,713103.000,0.000
193259.500,198819.000,207647.900,422294.300,101957.600,217513.800,200492.600,713106.300,0.000
193281.400,198829.000,207722.500,423312.200,101994.100,217516.500,200555.200,713123.100,0.000
193275.600,198832.500,207747.900,424235.300,102017.700,217512.100,200602.800,713138.200,0.000
193246.000,198802.800,207613.700,423610.800,101930.100,217499.300,200448.600,713124.600,0.000
193249.000,198821.300,207597.000,422384.900,101926.100,217515.800,200436.700,713104.600,0.000
193266.900,198835.400,207665.600,422214.500,101966.300,217525.200,200503.600,713106.000,0.000
193287.700,198842.100,207739.100,423234.400,102002.100,217525.800,200565.300,713124.300,0.000
193277.900,198839.200,207758.200,424153.300,102022.600,217515.500,200605.900,713139.900,0.000
193244.100,198808.500,207618.700,423524.300,101934.600,217505.500,200452.300,713123.300,0.000
193242.700,198819.100,207594.400,422299.200,101927.000,217522.500,200439.700,713104.000,0.000
193257.300,198830.300,207652.200,422122.300,101961.600,217525.200,200502.300,713103.600,0.000
193282.100,198839.700,207727.400,423146.500,102000.000,217525.000,200565.500,713124.900,0.000
193273.200,198839.000,207750.100,424072.300,102021.900,217520.700,200613.900,713140.800,0.000
193242.300,198811.200,207613.200,423450.200,101935.000,217514.000,200464.200,713123.400,0.000
193236.500,198811.800,207584.000,422218.100,101921.500,217518.100,200441.400,713103.300,0.000
193257.100,198822.000,207649.300,422047.100,101961.700,217524.600,200504.700,713105.400,0.000
193280.100,198833.300,207723.800,423071.300,101997.200,217526.900,200567.600,713125.200,0.000
193275.500,198837.700,207746.900,423997.100,102020.600,217524.300,200617.800,713138.700,0.000
193241.400,198809.700,207608.900,423373.800,101934.900,217518.500,200469.300,713121.200,0.000
193237.200,198811.100,207580.200,422141.600,101922.700,217525.900,200445.000,713102.800,0.000
193249.400,198819.000,207639.000,421971.800,101953.600,217523.800,200497.400,713106.300,0.000
193269.500,198827.500,207710.800,422991.400,101986.500,217523.000,200557.000,713124.800,0.000
193262.200,198826.900,207734.800,423919.600,102010.600,217520.800,200607.200,713140.900,0.000
193235.600,198801.700,207603.900,423304.800,101925.400,217509.100,200454.200,713125.400,0.000
193239.500,198816.000,207581.400,422071.800,101914.900,217516.500,200429.300,713105.700,0.000
193262.000,198834.400,207648.400,421899.600,101952.600,217524.200,200490.000,713105.500,0.000
193286.100,198840.300,207722.400,422919.500,101986.500,217525.700,200550.600,713122.200,0.000
193282.100,198843.000,207749.100,423853.800,102011.500,217523.700,200602.100,713137.900,0.000
193251.200,198812.500,207613.100,423245.800,101926.900,217514.900,200451.700,713124.800,0.000
193247.900,198815.500,207582.500,422010.800,101913.800,217521.500,200428.100,713106.500,0.000
193257.500,198817.400,207637.500,421826.000,101942.000,217514.500,200481.000,713104.400,0.000
193273.200,198821.100,207705.900,422845.800,101971.600,217508.600,200539.300,713122.400,0.000
193268.900,198827.100,207733.500,423779.100,101999.100,217510.100,200593.800,713137.200,0.000
193238.100,198794.700,207597.500,423164.700,101909.300,217493.500,200437.400,713123.900,0.000
193235.600,198803.000,207570.600,421925.500,101895.400,217500.500,200411.700,713102.400,0.000
193258.700,198819.900,207640.200,421759.000,101938.500,217512.400,200481.600,713104.800,0.000
193283.200,198827.100,207715.800,422788.400,101976.500,217514.800,200548.400,713123.600,0.000
193274.700,198828.700,207736.300,423719.900,101998.100,217510.300,200596.700,713135.200,0.000
193240.900,198795.400,207600.600,423112.300,101912.700,217498.000,200447.200,713122.700,0.000
193231.600,198796.100,207568.800,421874.100,101900.100,217505.100,200424.600,713104.400,0.000
193245.400,198808.000,207629.500,421698.300,101933.900,217508.700,200485.200,713106.100,0.000
193271.300,198819.000,207704.700,422732.300,101970.100,217508.800,200548.700,713123.800,0.000
193265.600,198826.200,207731.000,423669.400,101996.900,217509.600,200600.800,713138.600,0.000
193227.400,198792.000,207587.700,423055.200,101905.100,217493.400,200442.800,713122.700,0.000
193226.500,198800.200,207560.500,421815.300,101895.400,217503.100,200421.000,713101.800,0.000
193249.200,198817.500,207629.700,421646.000,101937.400,217511.400,200488.200,713102.600,0.000
193268.600,198820.100,207702.200,422682.300,101969.000,217507.000,200545.000,713121.400,0.000
193255.500,198816.400,207722.000,423615.800,101987.800,217502.300,200590.400,713132.700,0.000
193217.700,198781.900,207580.600,423007.800,101895.200,217489.100,200434.800,713118.700,0.000
193224.000,198797.200,207557.800,421782.500,101889.400,217506.000,200419.700,713104.800,0.000
193241.300,198811.500,207620.500,421611.700,101926.000,217511.000,200486.600,713106.800,0.000
193264.200,198821.800,207700.500,422656.500,101965.400,217514.500,200556.000,713127.900,0.000
193268.200,198832.300,207737.100,423603.000,101999.500,217518.800,200613.000,713145.300,0.000
193234.700,198794.500,207597.000,422983.200,101905.500,217499.800,200450.600,713126.400,0.000
193228.100,198793.500,207560.100,421735.200,101883.100,217496.900,200414.500,713104.600,0.000
193245.900,198808.000,207621.600,421551.100,101918.100,217498.100,200474.900,713101.900,0.000
193257.100,198805.200,207685.500,422577.400,101944.600,217487.700,200528.300,713115.800,0.000
193246.700,198797.900,207704.800,423515.900,101966.800,217480.700,200574.200,713129.700,0.000
193212.200,198765.600,207568.200,422904.000,101877.500,217468.900,200419.500,713116.600,0.000
193213.500,198779.700,207546.100,421668.400,101871.700,217485.700,200403.500,713099.400,0.000
193234.000,198800.900,207616.300,421497.300,101915.800,217494.000,200470.000,713100.300,0.000
193256.000,198809.500,207690.800,422535.400,101952.800,217494.800,200531.600,713117.700,0.000
193254.000,198819.700,207720.200,423477.300,101985.300,217504.000,200592.000,713136.300,0.000
193229.800,198797.800,207590.900,422871.200,101903.000,217497.200,200445.800,713123.600,0.000
193225.100,198802.600,207558.400,421627.200,101886.200,217501.500,200419.500,713102.300,0.000
193245.100,198813.600,207620.500,421442.300,101921.600,217504.800,200478.100,713101.500,0.000
193272.400,198822.300,207698.100,422482.300,101957.800,217504.200,200540.500,713122.100,0.000
193267.000,198819.300,207723.300,423415.200,101980.800,217500.200,200591.900,713135.900,0.000
193237.800,198791.700,207591.700,422800.300,101896.600,217492.400,200441.300,713121.600,0.000
193244.500,198809.500,207571.700,421567.000,101890.300,217505.100,200416.500,713104.600,0.000
193272.200,198834.000,207645.500,421392.200,101935.900,217516.700,200482.500,713106.300,0.000
193294.500,198839.700,207721.600,422427.000,101972.900,217517.800,200547.800,713124.100,0.000
193284.800,198839.000,207744.900,423353.300,101997.300,217516.900,200600.800,713137.400,0.000
193248.000,198806.500,207604.400,422733.500,101906.600,217503.000,200445.900,713121.400,0.000
193247.800,198816.500,207575.800,421489.900,101894.500,217509.100,200418.500,713103.300,0.000
193258.400,198821.900,207633.000,421293.800,101925.400,217508.500,200475.400,713101.100,0.000
193278.600,198824.300,207706.500,422325.400,101958.100,217506.400,200538.300,713118.900,0.000
193274.700,198829.800,207731.800,423263.300,101983.200,217505.000,200590.600,713137.000,0.000
193248.100,198799.600,207598.500,422653.400,101897.900,217497.300,200439.800,713122.700,0.000
193252.200,198815.600,207576.100,421414.700,101891.100,217511.300,200418.000,713103.900,0.000
193274.400,198839.200,207644.100,421232.200,101935.400,217523.900,200489.300,713102.800,0.000
193288.200,198835.500,207710.000,422266.600,101963.600,217516.300,200551.100,713121.200,0.000
193279.700,198834.700,207732.400,423205.600,101985.700,217513.600,200601.300,713138.800,0.000
193239.100,198798.700,207589.500,422586.500,101889.400,217495.300,200441.100,713120.600,0.000
193229.300,198801.200,207557.600,421340.800,101871.100,217501.100,200410.400,713100.100,0.000
193252.700,198822.200,207629.000,421163.000,101915.600,217514.000,200481.500,713101.900,0.000
193285.700,198839.800,207714.100,422203.600,101961.700,217521.400,200552.900,713121.600,0.000
193285.100,198847.900,207742.400,423141.300,101990.200,217522.600,200604.100,713136.400,0.000
193258.900,198821.100,207610.200,422531.700,101906.200,217514.100,200453.700,713122.300,0.000
193253.500,198825.100,207578.200,421289.000,101889.100,217518.500,200424.200,713103.800,0.000
193269.200,198835.300,207635.700,421094.200,101921.300,217518.200,200480.200,713103.300,0.000
193285.700,198830.700,207702.900,422117.700,101950.800,217512.700,200540.300,713122.000,0.000
193279.900,198830.700,207728.500,423053.900,101977.100,217513.300,200593.600,713136.900,0.000
193251.400,198803.500,207598.900,422444.500,101896.300,217506.700,200448.600,713120.600,0.000
193242.700,198808.800,207566.900,421195.300,101881.300,217511.900,200421.900,713099.700,0.000
193264.500,198828.200,207636.200,421012.800,101924.300,217523.100,200490.300,713102.300,0.000
193296.800,198843.700,207720.400,422051.100,101969.000,217532.100,200559.700,713122.300,0.000
193281.600,198836.300,207736.900,422984.300,101985.200,217520.200,200601.000,713134.100,0.000
193241.000,198799.400,207591.000,422366.400,101889.600,217503.500,200440.000,713118.100,0.000
193241.900,198809.500,207561.500,421123.500,101875.800,217513.200,200414.100,713100.800,0.000
193268.300,198830.900,207631.700,420942.900,101918.200,217526.100,200484.300,713105.300,0.000
193291.300,198838.800,207705.100,421971.700,101951.900,217522.500,200546.200,713122.900,0.000
193284.800,198843.100,207730.200,422911.800,101976.800,217515.900,200595.700,713136.600,0.000
193257.600,198819.500,207602.000,422309.100,101899.800,217513.200,200450.100,713123.900,0.000
193250.800,198829.600,207574.600,421067.700,101890.500,217525.500,200426.400,713106.600,0.000
193258.200,198834.300,207631.000,420872.600,101924.400,217527.500,200485.900,713106.700,0.000
193271.600,198829.800,207696.400,421891.300,101953.800,217518.700,200544.400,713120.800,0.000
193268.200,198835.400,207722.500,422833.000,101979.200,217516.500,200596.700,713135.800,0.000
193239.800,198810.400,207588.600,422226.900,101889.800,217505.900,200443.700,713121.600,0.000
193244.300,198820.100,207561.400,420976.700,101874.200,217513.200,200416.300,713101.300,0.000
193260.300,198825.000,207618.600,420781.200,101904.600,217511.900,200473.500,713103.300,0.000
193286.600,198830.400,207693.200,421811.800,101944.600,217516.500,200541.200,713123.800,0.000
193282.500,198834.300,207723.500,422756.300,101978.600,217519.100,200602.500,713139.100,0.000
193241.400,198796.800,207582.900,422147.500,101888.600,217503.000,200446.500,713119.800,0.000
193230.200,198800.500,207551.000,420894.500,101874.200,217510.200,200418.600,713099.400,0.000
193234.500,198804.600,207606.900,420695.800,101909.700,217512.700,200478.600,713099.900,0.000
193249.300,198812.200,207676.700,421723.600,101943.300,217512.800,200537.600,713117.100,0.000
193252.600,198822.000,207704.500,422672.700,101965.100,217514.300,200589.200,713132.700,0.000
193236.100,198797.700,207572.900,422070.800,101873.500,217497.600,200431.900,713118.400,0.000
193252.300,198819.600,207555.000,420830.400,101868.400,217515.500,200415.300,713100.600,0.000
193277.400,198829.100,207622.300,420642.900,101908.900,217522.300,200485.100,713101.300,0.000
193308.400,198844.200,207701.800,421682.400,101952.100,217528.600,200554.000,713121.700,0.000
193308.400,198853.200,207731.600,422634.900,101982.300,217528.500,200608.100,713136.800,0.000
193275.100,198823.100,207596.800,422031.500,101895.200,217518.100,200455.800,713121.800,0.000
193267.400,198831.100,207568.300,420783.500,101881.900,217530.200,200431.600,713101.500,0.000
193278.800,198840.100,207630.200,420588.300,101917.600,217532.100,200492.800,713100.600,0.000
193301.700,198848.800,207707.300,421617.700,101954.600,217531.000,200555.900,713116.400,0.000
193304.400,198858.900,207740.700,422567.200,101983.800,217529.400,200608.700,713129.700,0.000
193282.500,198835.400,207612.200,421977.400,101900.800,217522.900,200459.100,713118.900,0.000
193285.600,198850.300,207584.300,420729.000,101890.100,217538.600,200438.200,713099.800,0.000
193301.400,198864.500,207645.900,420535.800,101927.400,217544.900,200503.100,713100.800,0.000
193321.500,198864.000,207716.800,421565.400,101960.900,217539.100,200562.300,713121.900,0.000
193322.000,198872.900,207749.600,422517.800,101993.000,217540.300,200618.600,713136.600,0.000
193284.000,198839.900,207610.300,421921.300,101902.000,217525.300,200464.000,713118.900,0.000
193273.100,198835.300,207574.000,420667.400,101882.200,217527.900,200431.100,713093.600,0.000
193284.100,198837.200,207634.200,420477.200,101918.200,217532.200,200493.700,713094.600,0.000
193307.100,198844.300,207709.900,421509.100,101953.100,217531.600,200554.400,713114.000,0.000
193302.700,198850.400,207737.900,422465.100,101980.000,217533.000,200609.600,713132.400,0.000
193266.300,198822.200,207600.400,421876.200,101892.100,217520.800,200455.600,713119.100,0.000
193264.500,198833.500,207569.300,420636.300,101880.200,217528.300,200428.700,713099.000,0.000
193289.800,198851.500,207640.300,420450.900,101929.000,217542.000,200505.200,713101.100,0.000
193318.600,198871.800,207720.400,421476.200,101972.600,217551.200,200579.200,713119.600,0.000
193318.200,198876.400,207752.200,422429.700,102001.300,217548.100,200634.000,713137.200,0.000
193293.500,198856.200,207627.200,421847.200,101922.400,217544.300,200488.700,713123.100,0.000
193280.600,198851.700,207584.100,420599.900,101896.600,217539.500,200448.500,713101.100,0.000
193299.200,198859.100,207644.000,420399.600,101930.800,217542.800,200508.900,713099.700,0.000
193325.400,198869.100,207722.300,421421.600,101969.800,217552.100,200579.300,713116.200,0.000
193313.200,198865.800,207745.700,422371.400,101994.100,217548.600,200631.600,713129.700,0.000
193275.400,198828.300,207605.100,421785.200,101901.100,217528.600,200473.100,713114.600,0.000
193268.300,198830.300,207567.800,420542.600,101879.300,217530.100,200434.400,713094.800,0.000
193282.300,198833.300,207624.700,420340.300,101909.300,217526.100,200488.300,713095.200,0.000
193305.100,198839.600,207698.700,421361.200,101944.300,217521.500,200549.100,713113.600,0.000
193307.500,198850.800,207731.800,422319.000,101976.400,217523.500,200607.900,713131.200,0.000
193268.200,198809.500,207586.800,421720.500,101879.300,217500.700,200445.500,713113.300,0.000
193272.400,198824.200,207558.300,420474.300,101865.800,217510.900,200411.900,713093.200,0.000
193307.600,198856.200,207640.200,420292.500,101920.500,217535.300,200489.300,713101.800,0.000
193326.600,198861.200,207712.500,421306.800,101953.600,217531.800,200546.900,713116.400,0.000
193316.800,198860.900,207735.300,422258.200,101978.100,217530.000,200600.900,713131.200,0.000
193291.400,198836.000,207606.900,421680.500,101899.900,217531.900,200463.200,713120.600,0.000
193277.100,198831.700,207563.500,420429.200,101878.000,217532.700,200429.100,713099.400,0.000
193283.000,198839.200,207616.500,420215.800,101908.000,217533.200,200488.000,713096.400,0.000
193298.000,198846.400,207689.200,421239.100,101943.500,217534.600,200551.600,713116.600,0.000
193293.700,198849.700,207720.000,422191.300,101973.900,217530.700,200605.400,713135.400,0.000
193272.300,198825.000,207593.200,421601.200,101893.200,217521.300,200455.500,713119.900,0.000
193272.800,198836.300,207566.200,420353.000,101878.900,217532.500,200428.000,713096.100,0.000
193296.300,198856.100,207634.600,420149.300,101918.700,217540.200,200493.400,713096.900,0.000
193318.200,198865.500,207709.500,421163.300,101952.900,217538.000,200552.800,713114.200,0.000
193310.300,198866.000,207736.300,422108.100,101979.200,217537.400,200606.000,713129.400,0.000
193279.200,198842.100,207605.100,421520.200,101898.800,217536.200,200464.600,713117.300,0.000
193273.500,198842.600,207570.200,420270.000,101882.500,217544.300,200438.400,713097.900,0.000
193294.600,198855.300,207636.800,420066.400,101921.200,217550.300,200502.000,713099.900,0.000
193313.700,198858.200,207707.000,421074.700,101953.300,217545.400,200562.000,713116.600,0.000
193305.600,198859.800,207731.000,422015.200,101977.500,217538.500,200613.700,713130.500,0.000
193273.900,198832.900,207598.900,421423.500,101890.100,217526.700,200462.800,713116.300,0.000
193271.500,198841.300,207568.500,420179.700,101874.700,217533.300,200435.400,713095.600,0.000
193289.800,198854.000,207630.200,419975.300,101911.300,217537.700,200496.000,713096.700,0.000
193310.200,198858.300,207702.000,420989.100,101947.000,217540.700,200559.600,713117.100,0.000
193298.300,198862.700,207725.900,421933.900,101971.300,217542.200,200614.400,713131.000,0.000
193267.000,198839.300,207593.500,421349.700,101886.800,217533.200,200466.000,713116.400,0.000
193270.100,198844.500,207566.100,420114.100,101875.500,217544.300,200441.400,713101.100,0.000
193288.400,198853.300,207629.400,419901.600,101911.800,217550.300,200503.800,713100.200,0.000
193313.500,198861.900,207707.000,420912.100,101948.000,217548.200,200565.700,713114.400,0.000
193307.300,198866.300,207734.300,421866.300,101971.200,217543.600,200616.500,713127.200,0.000
193276.100,198837.500,207601.300,421286.300,101882.000,217529.800,200462.300,713116.400,0.000
193280.300,198850.100,207577.000,420060.500,101875.200,217543.500,200441.300,713100.200,0.000
193296.500,198863.300,207637.800,419857.100,101913.800,217549.900,200504.300,713102.700,0.000
193317.700,198868.500,207709.900,420867.600,101949.100,217552.900,200565.200,713119.800,0.000
193311.700,198870.600,207735.700,421824.900,101972.100,217546.200,200614.200,713136.300,0.000
193277.400,198839.600,207597.600,421247.700,101881.100,217530.600,200459.500,713119.800,0.000
193278.000,198843.200,207566.600,420016.500,101869.400,217541.800,200436.200,713100.000,0.000
193294.600,198849.800,207626.300,419808.300,101904.100,217543.900,200497.300,713096.300,0.000
193318.500,198854.800,207700.100,420824.600,101937.000,217538.900,200557.300,713114.800,0.000
193313.000,198859.300,207728.100,421785.400,101963.700,217534.000,200612.800,713130.000,0.000
193286.200,198839.800,207599.800,421217.200,101881.000,217528.700,200466.300,713116.000,0.000
193284.800,198848.300,207570.400,419989.200,101867.700,217540.300,200440.800,713097.400,0.000
193303.600,198859.700,207633.100,419792.500,101908.600,217550.400,200507.300,713098.800,0.000
193325.700,198865.000,207705.300,420806.600,101943.600,217552.500,200568.100,713117.100,0.000
193315.400,198862.700,207728.200,421757.400,101964.600,217541.100,200615.200,713131.400,0.000
193283.300,198841.000,207595.500,421188.700,101881.900,217535.200,200471.200,713119.300,0.000
193279.200,198842.600,207558.700,419959.000,101864.400,217536.800,200440.600,713100.100,0.000
193296.500,198853.600,207619.900,419754.300,101901.400,217541.300,200502.500,713098.100,0.000
193317.700,198861.600,207695.500,420766.800,101939.900,217545.600,200564.500,713115.600,0.000
193317.000,198868.500,207732.300,421736.400,101971.900,217545.300,200621.300,713134.500,0.000
193289.800,198841.200,207601.900,421173.600,101886.000,217534.200,200468.500,713120.900,0.000
193282.800,198846.300,207565.700,419942.400,101868.900,217541.800,200439.300,713101.000,0.000
193297.600,198857.800,207626.300,419740.700,101908.600,217552.100,200508.300,713101.500,0.000
193320.200,198866.000,207697.700,420751.800,101941.200,217551.300,200567.600,713117.900,0.000
193311.800,198868.000,207722.900,421707.300,101963.500,217545.500,200618.200,713132.600,0.000
193273.400,198830.900,207581.400,421140.400,101868.800,217523.500,200459.400,713117.500,0.000
193267.300,198829.900,207542.500,419913.700,101847.800,217525.900,200426.800,713097.400,0.000
193280.200,198834.000,207600.600,419708.000,101881.600,217528.400,200489.300,713096.100,0.000
193304.300,198844.700,207675.800,420715.200,101918.700,217529.300,200550.700,713114.500,0.000
193309.000,198860.300,207715.000,421687.800,101954.700,217536.000,200615.800,713133.600,0.000
193282.500,198833.800,207587.900,421142.300,101873.500,217529.600,200469.500,713122.900,0.000
193279.600,198843.500,207555.900,419925.500,101860.700,217542.500,200442.600,713106.400,0.000
193290.000,198852.500,207612.800,419719.400,101894.400,217545.400,200503.900,713104.600,0.000
193304.500,198853.100,207681.200,420725.700,101924.800,217539.500,200561.000,713122.900,0.000
193296.200,198854.000,207710.500,421692.000,101950.300,217535.100,200617.100,713138.800,0.000
193271.500,198828.800,207582.800,421142.300,101868.900,217525.000,200470.500,713125.300,0.000
193261.200,198826.500,207543.000,419911.000,101844.000,217524.100,200432.800,713100.800,0.000
193273.200,198831.400,207599.600,419704.200,101874.600,217522.800,200488.100,713096.100,0.000
193293.500,198832.400,207665.400,420699.300,101902.300,217516.500,200537.700,713109.800,0.000
193287.900,198837.500,207693.900,421665.300,101926.700,217512.300,200591.000,713124.800,0.000
193253.200,198805.300,207557.100,421118.100,101837.300,217494.100,200435.500,713112.300,0.000
193253.100,198813.100,207528.200,419904.900,101822.700,217502.000,200406.100,713092.900,0.000
193277.700,198831.600,207601.200,419720.500,101867.300,217515.800,200476.700,713094.700,0.000
193309.400,198846.800,207682.900,420729.200,101910.600,217528.100,200545.100,713118.300,0.000
193309.100,198850.800,207714.400,421685.100,101940.400,217526.700,200601.500,713134.700,0.000
193276.300,198819.400,207580.000,421130.900,101854.000,217511.400,200449.900,713120.900,0.000
193269.100,198822.400,207543.700,419919.000,101835.500,217516.300,200418.600,713102.100,0.000
193286.100,198836.700,207606.000,419719.800,101873.300,217524.000,200482.100,713100.800,0.000
193307.600,198841.500,207676.400,420707.800,101904.600,217522.500,200535.100,713115.600,0.000
193303.100,198846.300,207708.000,421663.900,101930.900,217515.000,200587.100,713132.300,0.000
193280.000,198829.200,207586.700,421121.800,101855.300,217516.800,200453.700,713120.600,0.000
193279.900,198838.400,207558.800,419913.000,101844.200,217526.100,200432.600,713102.800,0.000
193297.800,198852.500,207621.600,419712.300,101883.900,217534.900,200497.000,713103.400,0.000
193316.900,198855.200,207688.200,420694.600,101913.900,217531.000,200548.300,713120.600,0.000
193307.400,198852.800,207713.000,421642.500,101938.500,217523.100,200602.200,713136.400,0.000
193273.700,198822.700,207578.400,421093.600,101853.800,217508.800,200453.200,713122.500,0.000
193273.200,198832.000,207548.100,419888.200,101840.700,217520.300,200429.600,713103.000,0.000
193297.800,198850.800,207615.900,419689.500,101879.300,217530.500,200491.700,713103.400,0.000
193330.600,198868.800,207695.500,420674.400,101919.600,217539.300,200554.300,713122.400,0.000
193328.600,198874.200,207726.300,421622.600,101949.400,217539.300,200610.800,713137.400,0.000
193290.800,198840.700,207588.300,421065.400,101862.000,217525.700,200462.300,713122.500,0.000
193281.200,198842.200,207550.100,419853.200,101844.400,217529.100,200431.800,713104.100,0.000
193298.300,198857.800,207613.600,419640.500,101884.500,217538.500,200495.400,713104.800,0.000
193316.600,198860.400,207681.500,420603.400,101915.100,217536.000,200549.200,713122.400,0.000
193307.500,198856.300,207704.300,421536.800,101933.800,217524.800,200597.300,713135.200,0.000
193285.300,198836.100,207582.500,420996.500,101861.600,217524.400,200462.600,713124.100,0.000
193280.400,198841.000,207550.400,419799.400,101850.900,217534.700,200438.000,713106.600,0.000
193293.100,198848.800,207605.900,419587.600,101882.900,217539.000,200496.300,713105.100,0.000
193307.400,198846.100,207665.200,420540.900,101905.600,217530.500,200541.100,713121.100,0.000
193299.200,198849.200,207690.600,421474.300,101928.500,217525.100,200595.100,713134.500,0.000
193272.600,198828.300,207564.700,420932.800,101850.600,217518.800,200452.700,713121.400,0.000
193272.300,198838.600,207538.300,419740.600,101841.300,217530.100,200429.800,713105.000,0.000
193288.000,198848.400,207599.500,419529.700,101876.000,217532.600,200488.500,713105.700,0.000
193301.100,198842.300,207659.200,420467.600,101895.600,217519.100,200528.500,713119.800,0.000
193300.000,198847.800,207691.300,421401.500,101922.700,217512.900,200584.200,713131.900,0.000
193274.000,198820.200,207566.300,420858.300,101843.800,217504.900,200443.300,713118.400,0.000
193268.300,198821.200,207531.800,419663.200,101827.800,217509.900,200417.000,713099.600,0.000
193288.100,198837.500,207593.400,419453.800,101866.100,217521.200,200480.700,713100.300,0.000
193313.800,198849.900,207666.800,420400.700,101901.100,217527.500,200533.900,713118.800,0.000
193302.400,198854.000,207693.200,421320.900,101923.400,217520.800,200585.500,713134.600,0.000
193273.400,198831.000,207567.200,420768.600,101844.700,217514.600,200446.400,713122.000,0.000
193274.300,198840.600,207541.900,419571.200,101837.500,217526.100,200425.900,713102.500,0.000
193296.500,198856.800,207606.600,419349.100,101875.900,217534.900,200487.500,713100.500,0.000
193327.500,198861.100,207681.400,420280.800,101908.200,217533.800,200539.400,713118.500,0.000
193330.400,198863.800,207715.800,421203.100,101936.100,217528.700,200592.900,713133.300,0.000
193307.000,198839.900,207590.200,420654.800,101855.300,217522.600,200452.600,713119.300,0.000
193299.400,198843.800,207553.800,419456.200,101835.800,217533.100,200429.400,713100.900,0.000
193308.400,198855.400,207607.300,419235.400,101867.600,217537.900,200486.900,713103.800,0.000
193325.700,198863.100,207673.000,420153.800,101899.500,217540.900,200538.700,713119.800,0.000
193311.800,198865.100,207699.000,421060.900,101925.200,217536.000,200593.900,713133.700,0.000
193289.600,198850.800,207582.400,420514.300,101854.600,217536.700,200462.900,713120.900,0.000
193286.200,198853.800,207552.600,419317.100,101840.600,217542.000,200435.200,713100.800,0.000
193305.800,198866.700,207613.200,419094.900,101875.200,217547.100,200492.100,713097.700,0.000
193331.600,198872.500,207680.500,420010.700,101901.700,217541.600,200534.500,713115.200,0.000
193328.200,198870.800,207709.900,420924.100,101924.000,217530.800,200583.300,713129.900,0.000
193300.800,198847.200,207582.500,420382.600,101843.500,217520.100,200442.800,713119.100,0.000
193294.700,198854.200,207547.900,419193.000,101827.900,217528.400,200418.400,713099.400,0.000
193310.500,198869.700,207606.400,418969.300,101862.500,217536.700,200480.000,713098.400,0.000
193328.200,198870.700,207668.100,419868.200,101890.600,217538.300,200528.700,713114.600,0.000
193316.900,198869.200,207694.100,420768.100,101916.100,217534.700,200582.000,713128.700,0.000
193277.000,198835.900,207559.900,420211.100,101831.200,217520.800,200435.800,713113.900,0.000
193273.000,198843.200,207530.800,419024.900,101819.600,217529.400,200411.900,713096.100,0.000
193298.300,198859.500,207595.700,418807.300,101859.800,217540.400,200476.300,713095.600,0.000
193320.500,198860.000,207656.300,419698.500,101884.400,217537.400,200522.500,713109.900,0.000
193309.500,198854.900,207679.300,420600.300,101907.300,217527.900,200576.900,713127.300,0.000
193280.800,198827.100,207551.800,420055.700,101827.200,217517.200,200438.400,713112.300,0.000
193279.100,198836.800,207523.600,418875.800,101816.800,217529.100,200419.300,713092.100,0.000
193300.900,198859.400,207588.600,418665.500,101859.100,217542.300,200486.000,713093.100,0.000
193326.600,198869.300,207658.700,419564.700,101891.300,217545.800,200535.100,713110.300,0.000
193316.800,198867.900,207687.100,420474.400,101914.900,217537.600,200587.400,713124.700,0.000
193281.600,198835.300,207555.000,419934.800,101828.600,217520.400,200439.600,713110.600,0.000
193281.300,198846.100,207530.000,418768.400,101819.400,217534.000,200421.500,713092.800,0.000
193288.400,198850.600,207580.300,418553.500,101847.300,217531.800,200473.300,713093.000,0.000
193305.100,198848.400,207639.000,419435.700,101869.800,217527.000,200513.600,713105.200,0.000
193312.200,198863.300,207684.300,420359.000,101910.500,217535.600,200583.300,713123.700,0.000
193284.400,198837.700,207562.900,419832.300,101832.900,217524.300,200445.000,713109.100,0.000
193280.500,198842.400,207534.100,418664.100,101819.200,217530.700,200421.300,713091.600,0.000
193303.000,198860.500,207597.900,418456.800,101860.200,217543.300,200485.100,713095.400,0.000
193324.000,198865.500,207661.400,419333.500,101887.200,217544.100,200528.600,713109.600,0.000
193313.900,198867.500,207689.200,420227.800,101912.100,217538.800,200585.800,713119.600,0.000
193286.500,198842.300,207563.200,419697.900,101833.600,217529.800,200450.300,713106.900,0.000
193281.600,198840.700,207529.500,418526.500,101815.700,217530.800,200420.000,713089.400,0.000
193299.600,198854.700,207589.100,418301.100,101850.200,217537.000,200473.300,713089.000,0.000
193321.000,198856.200,207650.000,419157.000,101873.400,217535.000,200513.300,713102.800,0.000
193321.500,198863.300,207685.900,420052.400,101906.300,217536.000,200579.600,713117.700,0.000
193289.700,198833.800,207555.700,419513.800,101823.700,217521.900,200438.700,713106.300,0.000
193290.600,198845.600,207528.500,418332.500,101811.900,217533.700,200416.900,713087.400,0.000
193305.000,198857.700,207585.300,418096.500,101843.600,217537.800,200472.400,713085.300,0.000
193325.000,198861.300,207646.200,418940.800,101865.700,217534.100,200508.500,713099.400,0.000
193339.000,198882.700,207696.200,419837.400,101909.200,217543.500,200579.900,713118.100,0.000
193314.900,198859.200,207575.200,419301.800,101832.800,217533.300,200444.000,713106.400,0.000
193303.500,198856.700,207537.100,418110.800,101811.400,217533.400,200411.300,713084.900,0.000
193312.500,198857.000,207585.800,417867.000,101837.100,217529.300,200457.700,713081.400,0.000
193350.700,198877.500,207663.100,418729.700,101878.200,217543.100,200515.200,713100.200,0.000
193352.300,198887.800,207700.700,419613.600,101911.800,217545.700,200579.600,713113.800,0.000
193316.600,198853.500,207568.000,419066.200,101826.900,217532.100,200438.500,713098.300,0.000
193313.800,198861.300,207537.700,417887.900,101813.700,217540.700,200416.300,713081.800,0.000
193328.600,198871.200,207594.400,417655.400,101846.100,217543.100,200470.000,713080.800,0.000
193349.700,198876.700,207655.600,418503.000,101870.600,217542.200,200508.000,713095.000,0.000
193347.900,198881.100,207689.200,419394.400,101899.700,217543.200,200570.200,713109.900,0.000
193312.700,198847.900,207559.500,418865.900,101816.500,217530.500,200429.700,713097.100,0.000
193307.900,198856.900,207528.500,417692.500,101804.300,217539.300,200405.600,713078.500,0.000
193327.000,198878.800,207591.700,417469.300,101846.300,217551.300,200468.900,713078.900,0.000
193342.700,198883.200,207648.500,418313.500,101869.200,217547.200,200509.600,713091.300,0.000
193335.400,198879.900,207680.900,419208.400,101899.200,217542.600,200574.500,713106.300,0.000
193307.900,198854.000,207560.500,418699.100,101823.200,217535.000,200440.300,713094.300,0.000
193312.000,198867.600,207536.700,417543.900,101814.300,217546.400,200417.500,713078.700,0.000
193324.500,198874.600,207592.500,417325.700,101845.600,217545.400,200468.900,713075.900,0.000
193339.800,198876.500,207651.700,418178.700,101868.900,217543.900,200507.900,713091.100,0.000
193331.600,198879.800,207681.800,419066.000,101895.200,217540.100,200566.400,713104.800,0.000
193302.100,198855.000,207557.400,418551.500,101816.000,217530.900,200430.000,713091.100,0.000
193302.900,198867.900,207532.500,417393.900,101809.400,217547.200,200413.100,713073.500,0.000
193321.000,198879.000,207591.900,417166.600,101845.800,217552.800,200468.900,713073.500,0.000
193342.200,198880.700,207652.200,418007.500,101869.500,217549.100,200507.200,713088.300,0.000
193329.900,198876.600,207677.800,418890.700,101892.500,217540.400,200562.000,713103.000,0.000
193300.000,198849.100,207554.700,418368.400,101814.000,217530.100,200425.900,713089.100,0.000
193303.300,198858.900,207530.300,417200.700,101806.100,217542.500,200405.200,713071.800,0.000
193315.100,198866.800,207583.300,416954.200,101835.400,217544.900,200456.200,713070.400,0.000
193329.700,198862.900,207636.300,417778.300,101854.600,217541.000,200490.200,713085.300,0.000
193326.200,198865.500,207667.700,418655.100,101886.100,217538.500,200553.000,713100.900,0.000
193293.800,198837.800,207538.000,418126.400,101804.400,217526.200,200415.700,713086.800,0.000
193292.400,198848.500,207506.500,416954.200,101790.300,217533.500,200389.800,713069.900,0.000
193312.100,198867.500,207568.500,416717.700,101826.900,217540.100,200447.400,713070.100,0.000
193331.200,198871.000,207628.400,417544.700,101847.100,217537.100,200482.100,713081.600,0.000
193334.300,198883.800,207669.900,418414.800,101884.300,217544.500,200547.500,713096.400,0.000
193303.000,198855.200,207546.200,417874.400,101803.800,217532.900,200410.000,713080.300,0.000
193303.400,198864.300,207517.500,416689.200,101790.400,217541.600,200385.500,713063.800,0.000
193323.400,198872.600,207574.900,416426.800,101823.000,217542.800,200441.800,713063.800,0.000
193345.400,198870.900,207629.400,417219.200,101840.100,217534.900,200470.800,713077.400,0.000
193342.100,198874.900,207660.000,418045.900,101865.800,217530.300,200522.900,713089.900,0.000
193309.800,198842.800,207534.700,417479.500,101786.400,217518.300,200388.900,713073.900,0.000
193302.700,198850.300,207502.500,416273.500,101773.400,217529.100,200367.200,713054.200,0.000
193322.700,198871.100,207569.000,416021.900,101816.500,217542.000,200431.200,713052.800,0.000
193351.100,198882.500,207640.200,416864.400,101849.400,217550.200,200481.100,713070.100,0.000
193344.700,198886.100,207674.700,417764.200,101879.300,217548.700,200544.200,713083.400,0.000
193316.600,198859.800,207553.800,417284.200,101804.100,217539.200,200414.000,713071.000,0.000
193310.800,198855.200,207517.300,416159.600,101785.200,217539.800,200386.000,713053.700,0.000
193328.500,198866.300,207577.400,415976.500,101823.200,217547.100,200450.500,713055.000,0.000
193342.200,198868.500,207635.500,416877.300,101845.800,217543.900,200492.600,713069.300,0.000
193337.600,198877.100,207673.100,417850.100,101882.000,217545.600,200560.100,713086.800,0.000
193305.900,198851.000,207549.900,417422.500,101804.200,217530.500,200423.100,713075.800,0.000
193304.900,198865.100,207521.200,416343.700,101794.400,217542.900,200402.700,713060.600,0.000
193319.400,198880.600,207577.400,416184.800,101830.000,217551.100,200466.600,713061.400,0.000
193338.000,198877.100,207637.000,417105.800,101852.700,217549.400,200508.800,713075.600,0.000
193341.500,198885.500,207678.700,418088.800,101890.200,217554.000,200579.300,713090.500,0.000
193316.600,198864.400,207560.500,417682.800,101817.700,217546.900,200453.900,713081.400,0.000
193308.900,198864.700,207522.600,416609.300,101796.400,217546.100,200424.300,713065.600,0.000
193320.200,198870.900,207575.100,416452.600,101826.000,217549.000,200479.400,713067.300,0.000
193340.200,198874.500,207637.600,417382.200,101851.000,217543.500,200519.200,713081.900,0.000
193341.400,198884.000,207683.100,418372.000,101890.100,217542.800,200587.800,713095.700,0.000
193305.200,198847.700,207559.000,417965.000,101809.200,217526.900,200451.600,713083.600,0.000
193302.800,198855.300,207527.100,416899.400,101794.700,217532.900,200427.500,713065.900,0.000
193330.100,198873.700,207591.200,416762.300,101835.400,217544.100,200491.000,713069.500,0.000
193353.100,198872.700,207652.400,417693.400,101858.100,217542.700,200530.800,713088.900,0.000
193338.400,198867.900,207677.100,418670.700,101878.100,217530.600,200584.100,713102.600,0.000
193308.200,198847.800,207557.400,418270.100,101805.200,217530.200,200459.800,713095.600,0.000
193304.000,198857.300,207527.200,417205.000,101794.600,217544.900,200439.100,713081.100,0.000
193313.800,198866.700,207580.000,417050.800,101827.000,217548.700,200492.000,713082.000,0.000
193326.300,198870.900,207637.700,417967.900,101851.500,217551.700,200535.200,713100.500,0.000
193326.600,198882.100,207679.500,418954.200,101888.200,217552.600,200605.400,713118.300,0.000
193302.600,198860.700,207560.700,418545.100,101811.200,217539.500,200471.200,713107.500,0.000
193287.300,198853.600,207515.900,417451.600,101784.900,217533.700,200435.300,713083.600,0.000
193304.600,198867.900,207574.000,417285.100,101821.500,217541.600,200495.900,713080.400,0.000
193327.000,198869.900,207634.500,418191.900,101841.600,217535.600,200532.300,713096.500,0.000
193318.500,198866.100,207663.900,419162.400,101867.400,217525.200,200588.800,713110.400,0.000
193280.600,198830.300,207533.200,418742.300,101783.900,217506.100,200448.600,713096.500,0.000
193272.800,198836.100,207499.200,417666.400,101768.100,217511.900,200422.300,713078.600,0.000
193304.800,198860.000,207573.900,417523.800,101816.900,217528.900,200493.000,713083.300,0.000
193330.500,198862.000,207640.700,418432.100,101842.100,217524.800,200530.800,713101.300,0.000
193330.000,198867.600,207680.400,419408.200,101875.100,217522.700,200594.400,713116.900,0.000
193299.100,198840.100,207556.600,418994.100,101795.300,217509.000,200457.300,713107.300,0.000
193292.000,198845.500,207521.600,417922.300,101782.100,217518.600,200433.600,713087.600,0.000
193310.600,198865.800,207582.800,417764.300,101823.600,217532.800,200499.200,713088.100,0.000
193327.700,198870.500,207638.900,418655.000,101845.500,217534.000,200536.900,713102.900,0.000
193320.700,198866.100,207671.000,419625.300,101872.400,217524.600,200596.500,713119.600,0.000
193289.100,198832.900,207547.000,419217.600,101790.700,217510.400,200459.900,713109.900,0.000
193292.200,198839.900,207521.300,418155.200,101781.900,217519.000,200440.000,713093.600,0.000
193308.400,198852.300,207579.400,417995.600,101815.600,217522.300,200496.600,713096.900,0.000
193315.200,198840.200,207624.200,418870.700,101823.000,217504.900,200515.700,713108.600,0.000
193316.900,198853.900,207667.700,419839.800,101863.600,217511.100,200590.400,713123.300,0.000
193292.600,198837.800,207552.600,419432.300,101795.500,217509.700,200467.100,713114.500,0.000
193283.500,198843.200,207518.200,418358.300,101779.700,217518.100,200441.000,713097.700,0.000
193300.400,198857.100,207576.100,418188.300,101816.100,217526.100,200499.500,713095.700,0.000
193324.200,198864.800,207635.400,419055.900,101840.000,217529.100,200534.000,713111.900,0.000
193323.700,198871.400,207674.000,420012.000,101874.700,217527.600,200599.800,713128.800,0.000
193294.000,198843.800,207551.700,419593.900,101796.500,217510.600,200462.300,713119.200,0.000
193288.600,198848.300,207517.300,418516.100,101778.600,217513.700,200432.700,713104.400,0.000
193296.100,198851.000,207565.000,418324.100,101803.000,217513.300,200484.000,713102.100,0.000
193310.800,198846.000,207616.600,419158.100,101818.800,217508.200,200514.700,713114.400,0.000
193310.600,198852.600,207656.500,420095.800,101850.600,217504.800,200579.200,713132.800,0.000
193280.400,198819.900,207532.700,419661.600,101770.300,217487.700,200441.900,713119.600,0.000
193278.000,198826.700,207503.000,418563.300,101759.800,217502.600,200422.400,713101.800,0.000
193291.200,198840.600,207560.400,418363.300,101796.600,217510.300,200481.200,713101.900,0.000
193307.500,198842.700,207613.600,419192.100,101824.100,217508.900,200515.800,713119.400,0.000
193288.200,198834.900,207635.000,420091.600,101852.100,217499.700,200573.000,713130.800,0.000
193258.800,198811.500,207515.000,419651.700,101779.100,217491.000,200448.100,713118.500,0.000
193254.600,198815.600,207480.100,418551.300,101761.300,217494.500,200419.100,713103.400,0.000
193269.500,198824.600,207531.900,418333.800,101790.900,217497.400,200469.700,713102.300,0.000
193292.500,198828.800,207587.800,419140.900,101809.600,217496.700,200500.300,713115.800,0.000
193300.100,198846.100,207635.100,420054.200,101845.100,217504.200,200571.900,713134.300,0.000
193272.100,198822.300,207516.800,419607.300,101766.600,217491.800,200441.300,713120.800,0.000
193276.500,198837.900,207493.300,418505.400,101757.900,217505.800,200420.100,713104.400,0.000
193302.900,198860.900,207561.600,418293.300,101803.800,217521.600,200485.900,713107.500,0.000
193308.700,198850.100,207605.500,419085.300,101812.600,217507.600,200505.500,713120.100,0.000
193304.300,198853.100,207642.300,419987.000,101843.700,217506.900,200573.700,713132.100,0.000
193277.100,198823.600,207523.100,419551.100,101768.000,217494.500,200445.800,713119.300,0.000
193270.500,198824.900,207488.000,418443.700,101747.500,217496.200,200411.200,713100.200,0.000
193291.800,198840.400,207549.500,418231.200,101783.700,217502.400,200468.300,713100.400,0.000
193321.900,198850.000,207613.200,419041.000,101809.400,217506.500,200505.300,713117.300,0.000
193318.500,198854.600,207651.800,419947.200,101841.800,217505.500,200573.100,713134.900,0.000
193285.900,198829.000,207532.900,419523.800,101768.800,217496.300,200448.400,713124.200,0.000
193274.700,198831.700,207495.500,418426.700,101752.100,217502.400,200421.800,713106.900,0.000
193285.000,198842.600,207550.100,418213.800,101785.100,217509.400,200479.300,713105.400,0.000
193299.100,198840.100,207598.700,419015.400,101799.900,217502.500,200503.700,713116.000,0.000
193294.700,198841.000,207636.700,419929.800,101834.800,217499.400,200571.500,713129.100,0.000
193270.500,198816.600,207524.200,419529.100,101765.800,217492.400,200451.000,713120.000,0.000
193274.100,198827.100,207496.400,418457.100,101756.100,217507.300,200432.500,713106.900,0.000
193287.700,198838.800,207549.200,418251.400,101786.000,217508.900,200485.300,713106.100,0.000
193306.300,198841.700,207601.400,419062.900,101801.900,217503.900,200508.500,713118.900,0.000
193303.900,198848.800,207641.400,419991.400,101834.800,217501.700,200573.700,713135.200,0.000
193274.900,198823.600,207525.600,419601.700,101761.000,217491.300,200449.000,713126.400,0.000
193267.000,198826.400,207490.200,418534.100,101745.000,217495.300,200420.900,713110.400,0.000
193277.700,198836.100,207542.600,418321.000,101777.700,217499.700,200476.400,713107.300,0.000
193299.600,198836.700,207597.800,419121.700,101798.000,217499.200,200507.800,713119.600,0.000
193295.700,198843.800,207637.800,420028.100,101829.700,217493.300,200570.500,713133.300,0.000
193269.800,198820.400,207524.400,419611.800,101760.900,217487.200,200449.400,713125.200,0.000
193264.200,198822.900,207484.800,418498.300,101740.500,217493.000,200419.400,713106.700,0.000
193291.400,198844.100,207547.300,418256.900,101782.800,217507.900,200482.700,713107.300,0.000
193311.200,198845.100,207597.700,419015.100,101798.300,217502.900,200504.200,713121.600,0.000
193309.000,198849.800,207635.300,419885.700,101832.000,217502.800,200569.900,713137.400,0.000
193270.700,198814.700,207510.600,419423.900,101752.000,217485.300,200438.700,713120.800,0.000
193257.800,198812.000,207471.400,418297.700,101730.500,217483.600,200405.800,713104.200,0.000
193269.300,198819.600,207524.700,418043.300,101763.100,217487.100,200460.600,713102.400,0.000
193289.700,198825.300,207581.600,418803.500,101787.200,217492.000,200494.900,713114.300,0.000
193293.200,198842.000,207628.600,419689.200,101829.500,217500.700,200570.700,713130.500,0.000
193257.800,198812.000,207505.200,419256.200,101749.900,217488.800,200441.300,713118.500,0.000
193250.600,198816.600,207464.000,418150.700,101725.200,217492.900,200405.900,713098.300,0.000
193269.900,198828.400,207519.300,417922.600,101757.600,217493.500,200456.500,713099.400,0.000
193296.200,198834.300,207577.500,418716.200,101779.300,217490.500,200486.100,713114.000,0.000
193307.700,198851.700,207631.500,419632.700,101827.700,217503.600,200566.800,713131.800,0.000
193275.000,198822.700,207514.300,419229.300,101755.300,217492.200,200443.800,713120.600,0.000
193269.600,198824.800,207481.100,418156.400,101740.700,217498.800,200420.000,713104.100,0.000
193282.800,198837.100,207536.800,417943.000,101776.000,217503.900,200478.300,713103.000,0.000
193298.600,198840.300,207590.000,418744.500,101795.300,217505.500,200510.700,713115.000,0.000
193292.300,198845.900,207630.600,419674.400,101827.900,217502.300,200577.800,713130.000,0.000
193261.500,198815.700,207512.400,419294.900,101750.200,217486.300,200447.700,713120.600,0.000
193257.400,198816.800,207475.500,418240.300,101730.800,217490.800,200418.900,713104.100,0.000
193289.800,198842.600,207544.400,418055.600,101775.000,217509.000,200486.000,713108.800,0.000
193303.200,198833.600,207587.500,418848.300,101781.800,217496.300,200503.300,713116.900,0.000
193298.700,198837.600,207625.500,419779.300,101815.200,217494.300,200570.400,713131.400,0.000
193272.800,198812.800,207511.700,419405.800,101747.700,217484.400,200450.600,713123.300,0.000
193265.600,198817.600,207476.700,418350.800,101734.100,217490.200,200425.200,713106.100,0.000
193289.500,198838.200,207541.100,418161.100,101777.000,217502.300,200487.600,713107.400,0.000
193302.000,198834.500,207592.500,418968.500,101790.300,217494.600,200510.400,713118.500,0.000
193311.000,198853.400,207644.100,419915.300,101833.000,217504.000,200584.800,713137.200,0.000
193280.800,198826.600,207525.500,419521.500,101757.500,217497.100,200458.400,713125.400,0.000
193273.600,198830.000,207487.000,418448.000,101734.500,217496.800,200421.800,713108.200,0.000
193299.500,198848.100,207550.800,418235.000,101775.700,217509.000,200483.500,713110.000,0.000
193320.500,198855.700,207607.000,419021.800,101797.400,217515.100,200517.000,713125.800,0.000
193310.000,198853.600,207640.400,419933.600,101823.200,217504.000,200575.400,713141.900,0.000
193276.100,198821.400,207518.600,419530.500,101744.800,217483.300,200442.900,713130.100,0.000
193272.800,198830.800,207486.600,418465.200,101735.000,217499.000,200427.300,713113.800,0.000
193289.600,198845.400,207543.600,418256.300,101774.600,217511.500,200494.400,713112.700,0.000
193315.400,198852.100,207602.100,419064.400,101797.800,217512.100,200525.600,713127.400,0.000
193306.200,198849.500,207635.400,420001.300,101825.900,217501.100,200585.000,713143.400,0.000
193270.900,198822.400,207517.300,419627.800,101751.500,217488.500,200462.300,713134.300,0.000
193261.100,198822.800,207478.500,418576.600,101731.800,217490.600,200434.500,713115.300,0.000
193270.500,198830.900,207528.700,418368.400,101764.400,217493.800,200490.100,713111.900,0.000
193295.900,198840.400,207588.500,419172.700,101788.800,217499.400,200523.000,713129.400,0.000
193283.600,198835.400,207620.500,420104.700,101814.200,217489.500,200583.100,713140.400,0.000
193252.700,198806.100,207502.300,419740.800,101739.200,217478.700,200461.100,713132.400,0.000
193254.000,198816.500,207470.500,418696.800,101727.100,217491.400,200437.400,713117.000,0.000
193263.500,198822.000,207518.900,418487.200,101753.600,217487.500,200481.800,713113.500,0.000
193304.400,198845.200,207593.100,419294.800,101790.400,217507.000,200525.000,713132.300,0.000
193302.700,198849.500,207634.000,420222.000,101823.000,217504.800,200592.700,713146.100,0.000
193262.700,198812.900,207509.700,419833.700,101742.000,217481.900,200461.500,713133.100,0.000
193262.900,198822.800,207480.200,418781.700,101731.600,217492.000,200439.300,713120.300,0.000
193272.200,198830.200,207530.600,418561.200,101762.500,217492.900,200492.300,713121.600,0.000
193283.900,198822.200,207573.000,419320.700,101770.500,217480.700,200503.300,713130.900,0.000
193291.100,198838.100,207624.000,420247.500,101816.900,217496.700,200586.800,713143.900,0.000
193268.100,198821.800,207515.700,419873.900,101753.500,217499.100,200478.100,713136.000,0.000
193258.900,198824.200,207475.100,418792.800,101731.600,217499.000,200442.700,713119.100,0.000
193278.000,198841.800,207532.800,418550.900,101768.900,217507.900,200501.100,713119.900,0.000
193296.700,198841.000,207581.800,419286.900,101781.200,217501.500,200519.400,713130.000,0.000
193299.200,198849.000,207628.000,420196.800,101819.400,217501.500,200591.100,713144.900,0.000
193269.800,198822.900,207514.200,419809.700,101750.100,217495.500,200472.200,713135.600,0.000
193262.400,198823.900,207476.100,418725.900,101731.600,217499.400,200440.600,713118.100,0.000
193283.400,198840.900,207536.100,418494.900,101771.200,217506.500,200499.300,713121.300,0.000
193300.300,198842.000,207582.800,419237.600,101783.800,217501.200,200518.100,713132.300,0.000
193295.000,198841.200,207621.100,420148.300,101814.900,217494.100,200583.800,713144.900,0.000
193272.100,198820.100,207512.100,419775.800,101747.000,217489.500,200468.400,713136.600,0.000
193266.300,198825.200,207474.900,418704.400,101726.300,217494.100,200437.600,713120.800,0.000
193288.600,198842.800,207537.300,418471.100,101764.200,217502.500,200494.100,713120.400,0.000
193308.300,198843.500,207589.500,419222.000,101780.300,217500.300,200519.300,713131.600,0.000
193306.300,198850.800,207631.500,420144.100,101816.800,217503.100,200592.700,713148.200,0.000
193273.700,198822.900,207512.800,419763.900,101742.300,217491.300,200466.800,713137.400,0.000
193269.900,198828.400,207477.000,418692.100,101728.000,217504.000,200441.700,713121.700,0.000
193274.600,198830.000,207520.200,418446.000,101751.900,217493.500,200488.500,713116.000,0.000
193304.700,198846.600,207582.700,419207.800,101781.100,217507.000,200526.400,713133.400,0.000
193312.900,198863.300,207637.600,420137.100,101825.400,217512.100,200602.400,713154.200,0.000
193279.900,198829.600,207521.500,419756.000,101751.200,217497.200,200476.800,713145.500,0.000
193261.200,198822.400,207474.200,418661.500,101723.600,217498.400,200440.000,713124.800,0.000
193274.400,198829.400,207526.600,418418.300,101751.000,217496.300,200488.100,713123.900,0.000
193299.000,198833.500,207581.500,419151.900,101767.400,217490.900,200506.200,713129.400,0.000
193299.000,198846.000,207630.400,420067.900,101808.400,217495.300,200582.200,713146.100,0.000
193252.600,198804.600,207499.000,419668.500,101722.400,217470.600,200445.600,713131.600,0.000
193243.000,198807.000,207458.400,418583.400,101703.400,217478.100,200415.900,713113.100,0.000
193262.800,198829.700,207518.900,418352.300,101744.800,217493.600,200482.700,713117.100,0.000
193295.000,198844.500,207582.100,419108.100,101774.300,217503.800,200518.200,713135.100,0.000
193300.700,198858.700,207631.500,420022.300,101816.800,217511.300,200596.100,713150.400,0.000
193268.100,198826.600,207513.700,419637.100,101739.200,217494.800,200467.800,713140.900,0.000
193254.100,198816.800,207465.100,418531.500,101707.100,217485.600,200421.700,713117.100,0.000
193271.300,198830.800,207520.200,418291.800,101741.700,217494.400,200482.700,713117.100,0.000
193286.300,198827.700,207562.500,419027.700,101751.800,217485.300,200498.900,713129.700,0.000
193293.500,198847.200,207614.900,419941.000,101797.300,217492.900,200576.400,713146.800,0.000
193264.400,198823.500,207501.500,419563.500,101728.400,217488.900,200460.500,713138.200,0.000
193251.500,198820.600,207455.500,418472.400,101704.500,217489.300,200427.600,713119.600,0.000
193265.800,198832.100,207512.600,418232.600,101740.600,217494.800,200486.500,713118.500,0.000
193290.100,198835.600,207568.200,418977.300,101758.500,217491.300,200507.900,713130.900,0.000
193283.000,198830.800,207604.000,419877.400,101785.900,217480.300,200569.600,713145.300,0.000
193253.600,198803.500,207486.800,419505.000,101712.800,217468.900,200448.800,713137.700,0.000
193245.400,198806.600,207446.700,418417.000,101694.700,217480.800,200422.000,713120.200,0.000
193259.400,198822.900,207501.400,418160.800,101730.900,217491.800,200483.000,713115.300,0.000
193279.400,198827.600,207553.100,418897.700,101749.000,217490.500,200508.100,713129.500,0.000
193275.700,198834.300,207597.100,419806.500,101783.500,217489.300,200577.700,713147.400,0.000
193251.900,198816.700,207490.200,419438.700,101719.000,217486.000,200462.400,713140.400,0.000
193246.000,198818.800,207453.600,418356.400,101701.600,217492.500,200430.400,713121.700,0.000
193251.300,198817.300,207499.800,418100.800,101727.200,217489.400,200479.900,713116.300,0.000
193269.600,198813.500,207546.000,418839.200,101740.600,217481.700,200499.000,713127.800,0.000
193289.200,198837.200,207605.900,419764.800,101794.200,217496.600,200584.800,713149.300,0.000
193258.600,198810.800,207489.600,419385.800,101720.500,217485.300,200463.700,713137.400,0.000
193245.700,198807.900,207443.300,418297.100,101692.800,217482.400,200424.700,713115.600,0.000
193260.200,198817.800,207497.800,418055.800,101724.500,217486.000,200479.200,713117.100,0.000
193287.700,198828.700,207556.300,418799.100,101746.800,217492.900,200511.200,713130.900,0.000
193288.700,198839.800,207604.900,419720.400,101787.700,217495.800,200586.900,713147.400,0.000
193244.700,198800.300,207478.200,419345.700,101703.800,217469.600,200452.600,713133.400,0.000
193242.700,198807.900,207445.400,418281.800,101691.300,217481.200,200425.200,713120.300,0.000
193262.900,198826.900,207505.100,418043.600,101731.400,217492.200,200485.600,713125.800,0.000
193283.900,198830.700,207556.000,418792.300,101747.200,217491.100,200508.800,713141.600,0.000
193285.200,198839.000,207600.900,419714.200,101784.900,217493.800,200581.800,713158.600,0.000
193265.700,198825.800,207497.000,419360.800,101724.200,217493.600,200471.300,713149.300,0.000
193255.100,198824.200,207453.300,418278.800,101701.600,217500.200,200437.300,713128.800,0.000
193246.700,198807.300,207485.500,418009.300,101711.400,217475.700,200467.400,713117.800,0.000
193258.600,198798.600,207529.500,418737.300,101716.700,217458.300,200475.600,713123.100,0.000
193266.400,198812.900,207580.700,419659.900,101758.400,217461.900,200548.600,713136.800,0.000
193243.600,198796.300,207476.000,419318.900,101697.700,217463.100,200438.400,713133.100,0.000
193231.600,198798.900,207432.800,418244.200,101677.300,217471.000,200409.100,713119.400,0.000
193247.200,198814.000,207490.500,417994.300,101713.800,217477.800,200468.500,713121.400,0.000
193270.200,198815.700,207542.300,418735.900,101732.500,217476.500,200492.000,713134.300,0.000
193271.800,198824.700,207587.900,419653.700,101772.800,217479.400,200568.700,713147.600,0.000
193252.200,198808.900,207484.100,419299.900,101710.800,217477.800,200459.000,713137.700,0.000
193259.600,198825.800,207456.900,418227.700,101700.800,217498.100,200437.000,713124.300,0.000
193283.800,198847.500,207520.400,417979.600,101741.900,217510.300,200501.100,713125.400,0.000
193289.500,198836.300,207557.100,418702.300,101744.100,217493.100,200508.700,713132.700,0.000
193277.300,198838.900,207592.900,419615.100,101774.500,217490.200,200575.300,713148.000,0.000
193242.100,198807.400,207475.800,419245.000,101702.900,217479.500,200455.400,713136.600,0.000
193231.600,198807.300,207431.400,418151.200,101681.900,217484.500,200420.100,713118.100,0.000
193248.500,198826.100,207489.700,417903.400,101721.500,217494.600,200481.700,713121.900,0.000
193279.800,198836.700,207550.400,418645.300,101748.600,217505.000,200516.300,713136.900,0.000
193284.400,198845.900,207598.200,419563.100,101788.000,217505.500,200589.300,713152.400,0.000
