EEG 1, EEG 2, EEG 3, EEG 4, EEG 5, EEG 6, EEG 7, EEG 8, TRIG
46166.700,47593.720,46980.050,146475.600,10693.510,50718.890,46730.630,146475.600,0.000
152772.600,157484.300,155287.600,487151.300,35624.310,167806.000,154614.500,487151.300,0.000
228280.200,235294.500,231626.100,734571.100,53874.760,250661.500,230993.000,734571.100,0.000
245796.600,253309.800,248881.000,801303.100,58983.040,269770.800,248697.900,801303.100,0.000
247473.300,254996.500,250168.500,817789.300,60362.910,271489.100,250408.100,817789.300,0.000
236458.800,243604.800,238665.100,793229.100,58665.750,259285.800,239258.600,793229.100,0.000
213745.900,220159.100,215363.000,730188.300,54074.110,234251.000,216216.600,730188.300,0.000
200282.000,206255.000,201593.300,694636.800,51429.170,219395.800,202529.800,694636.800,0.000
208688.700,214904.900,210139.600,727301.400,53756.670,228582.800,211033.100,727301.400,0.000
223026.600,229672.700,224677.900,778897.900,57486.880,244290.200,225574.400,778897.900,0.000
220514.900,227068.900,222022.000,777435.200,57356.570,241480.600,223044.000,777435.200,0.000
202381.400,208358.100,203494.800,725877.100,53540.820,221510.000,204658.200,725877.100,0.000
190495.300,196089.800,191403.000,691511.200,51039.410,208412.200,192586.300,692829.800,0.000
196723.700,202500.700,197779.700,706637.600,52666.840,215224.500,198880.000,716399.200,0.000
208174.400,214296.800,209422.600,727384.600,55534.830,227777.100,210478.800,756732.600,0.000
206502.800,212566.900,207667.500,700909.300,55411.460,225911.400,208791.500,755871.400,0.000
192535.300,198163.500,193416.300,634699.700,52407.110,210542.300,194641.900,715684.700,0.000
183227.900,188565.200,183964.500,583595.600,50394.940,200301.500,185207.300,689324.900,0.000
187754.100,193227.700,188614.100,579056.300,51543.690,205261.100,189788.900,706219.100,0.000
196336.600,202068.400,197352.400,591964.800,53661.590,214671.500,198481.100,736143.100,0.000
195116.500,200801.000,196079.800,576450.900,53551.370,213306.100,197247.600,735265.300,0.000
184673.700,190027.800,185431.000,530777.700,51282.300,201813.700,186670.100,704203.800,0.000
177566.000,182696.800,178216.200,494115.600,49720.910,193997.000,179467.700,681618.900,0.000
180556.600,185778.100,181295.500,490686.800,50466.730,197277.400,182494.500,689895.900,0.000
186568.900,191972.300,187422.700,500218.700,51934.520,203869.100,188580.800,708193.400,0.000
185628.900,190998.100,186450.600,489696.500,51824.790,202816.000,187628.500,705067.800,0.000
178116.100,183249.800,178792.100,457448.200,50177.800,194550.400,180015.900,680995.100,0.000
172843.200,177813.700,173436.800,430815.300,49004.100,188755.800,174663.700,663482.400,0.000
174525.200,179547.500,175176.900,426991.700,49423.910,190601.500,176366.600,667851.700,0.000
178349.100,183484.500,179084.700,432590.300,50361.070,194794.100,180256.100,679345.100,0.000
177592.600,182698.300,178313.100,425151.700,50259.940,193950.300,179502.000,676469.100,0.000
172475.900,177421.300,173100.700,403095.300,49136.880,188320.700,174316.400,659540.500,0.000
168714.500,173545.100,169281.200,384163.000,48296.950,184186.100,170496.300,646665.600,0.000
169334.400,174187.000,169933.700,379607.000,48460.890,184868.000,171122.500,647667.100,0.000
171364.100,176281.500,172014.700,381337.600,48964.230,187098.000,173188.000,653346.900,0.000
170716.400,175613.100,171357.500,375580.500,48858.360,186380.100,172535.500,650691.200,0.000
167490.500,172284.200,168071.200,361140.400,48146.170,182828.400,169264.000,639791.700,0.000
164932.400,169643.500,165473.100,348098.000,47570.660,180013.900,166669.000,630820.100,0.000
164725.100,169425.300,165273.500,342810.700,47530.760,179781.900,166455.300,629236.400,0.000
165344.800,170057.300,165909.200,341249.400,47686.890,180455.100,167077.800,630430.000,0.000
164765.500,169454.200,165321.500,336488.900,47574.150,179809.700,166485.800,627945.900,0.000
162993.000,167624.100,163523.300,327743.300,47185.830,177858.600,164696.200,621690.800,0.000
161372.900,165954.400,161887.000,319213.900,46827.590,176080.000,163067.300,615901.100,0.000
160556.300,165115.700,161068.000,313421.300,46648.300,175185.000,162239.500,612629.400,0.000
160109.200,164656.800,160615.900,309309.700,46549.340,174694.000,161770.400,610507.900,0.000
159562.600,164093.400,160062.900,305151.400,46431.180,174089.700,161204.000,608040.400,0.000
158865.900,163372.200,159361.400,300561.800,46281.620,173317.300,160504.400,605161.300,0.000
157958.200,162430.500,158445.400,295392.300,46079.670,172309.400,159594.000,601745.800,0.000
156725.600,161153.700,157192.600,289309.400,45794.690,170945.500,158335.400,597305.100,0.000
155519.000,159904.200,155960.500,283401.600,45508.330,169614.000,157086.200,592811.000,0.000
154988.800,159349.800,155422.400,279677.500,45380.850,169020.500,156527.500,590335.600,0.000
155050.000,159400.800,155489.600,278039.600,45397.710,169071.500,156592.400,589833.200,0.000
154655.800,158982.300,155092.800,275287.700,45311.640,168624.900,156207.500,588117.700,0.000
153158.900,157431.200,153569.500,269111.800,44962.070,166972.600,154685.200,582944.400,0.000
151442.900,155658.100,151819.700,262060.700,44551.230,165083.600,152918.300,576878.600,0.000
150905.500,155103.600,151280.100,258650.600,44415.320,164489.700,152356.200,574375.100,0.000
151444.300,155660.200,151844.000,258985.500,44536.980,165077.300,152912.800,575409.300,0.000
151391.600,155606.900,151802.100,257903.800,44528.360,165013.500,152876.800,574835.900,0.000
149757.200,153922.700,150140.800,251838.700,44147.970,163214.900,151218.000,569295.800,0.000
147731.500,151834.100,148077.000,244225.500,43658.510,160993.100,149143.700,562325.200,0.000
147168.400,151255.400,147514.800,241088.900,43504.110,160381.200,148561.900,559819.500,0.000
147975.400,152092.000,148355.500,242656.600,43682.440,161276.700,149398.700,561769.900,0.000
148130.500,152256.300,148527.400,242660.200,43722.570,161454.700,149584.900,561915.400,0.000
146447.700,150525.300,146819.700,236848.900,43328.380,159610.500,147886.600,556290.500,0.000
144278.200,148292.400,144614.900,229110.500,42799.820,157231.900,145672.200,548930.000,0.000
143697.600,147698.700,144039.600,226200.200,42634.940,156600.600,145076.700,546420.600,0.000
144618.100,148652.900,144996.300,228417.000,42830.030,157619.700,146027.700,548766.800,0.000
144881.400,148927.300,145276.700,229058.600,42885.590,157914.800,146319.100,549269.700,0.000
143232.100,147228.300,143601.400,223623.200,42496.330,156107.300,144655.300,543751.600,0.000
141057.900,144989.500,141389.200,216109.600,41970.420,153724.300,142441.600,536384.900,0.000
140477.200,144394.800,140809.600,213422.300,41809.160,153091.300,141846.400,533891.400,0.000
141408.800,145356.200,141772.300,215889.200,42004.110,154117.500,142800.500,536282.600,0.000
141705.500,145660.600,142083.400,216852.800,42059.020,154445.700,143118.000,536902.800,0.000
140129.000,144036.300,140483.600,211873.600,41681.710,152720.800,141530.100,531639.400,0.000
138024.300,141870.900,138346.600,204824.500,41174.450,150420.800,139397.400,524539.000,0.000
137429.200,141263.400,137756.300,202346.800,41012.250,149777.500,138796.100,522070.500,0.000
138280.100,142145.300,138638.500,204771.900,41187.510,150718.200,139667.000,524258.100,0.000
138561.600,142438.600,138933.300,205829.800,41237.110,151029.100,139961.600,524826.600,0.000
137102.400,140936.000,137450.000,201353.700,40882.120,149426.100,138485.900,519919.400,0.000
135134.000,138906.900,135447.300,194917.800,40397.790,147264.500,136486.000,513277.300,0.000
134533.600,138287.400,134844.800,192625.000,40225.390,146606.000,135872.100,510845.600,0.000
135253.100,139029.600,135588.200,194796.700,40363.850,147402.500,136606.700,512657.900,0.000
135473.500,139260.300,135821.600,195770.700,40396.690,147655.000,136842.500,513045.800,0.000
134136.300,137886.600,134468.600,191790.100,40069.070,146194.400,135494.000,508536.600,0.000
132330.600,136028.600,132638.900,186028.600,39621.800,144216.000,133662.500,502451.500,0.000
131723.800,135406.300,132035.100,183887.600,39449.140,143553.300,133045.500,500054.300,0.000
132287.100,135990.700,132619.900,185670.800,39553.010,144176.300,133618.200,501392.800,0.000
132433.800,136144.200,132774.900,186441.600,39567.810,144339.400,133769.500,501519.000,0.000
131235.900,134909.100,131560.400,182929.300,39273.030,143023.400,132557.300,497404.100,0.000
129624.800,133247.000,129927.100,177872.800,38877.250,141256.000,130925.800,491906.100,0.000
129026.500,132631.500,129331.300,175890.700,38713.540,140605.400,130322.400,489532.900,0.000
129418.600,133039.100,129742.500,177244.000,38777.830,141045.600,130724.800,490332.100,0.000
129463.100,133089.100,129795.700,177764.800,38762.070,141102.000,130774.600,490124.400,0.000
128378.900,131975.000,128699.600,174698.800,38484.360,139914.700,129679.800,486358.600,0.000
126940.100,130493.500,127243.800,170346.000,38120.830,138337.100,128226.000,481427.400,0.000
126336.700,129874.700,126643.000,168537.500,37952.550,137679.500,127619.200,479076.600,0.000
126560.500,130110.600,126881.200,169481.000,37979.160,137935.500,127851.900,479350.500,0.000
126516.600,130069.600,126841.900,169752.700,37947.130,137898.600,127813.300,478824.400,0.000
125560.300,129087.500,125873.700,167106.000,37705.420,136856.500,126852.700,475413.600,0.000
124305.100,127796.100,124602.800,163422.400,37388.790,135483.400,125593.200,471059.700,0.000
123705.700,127178.300,124002.400,161769.900,37217.610,134828.800,124994.400,468772.000,0.000
123767.500,127241.800,124071.000,162314.000,37197.710,134901.800,125058.200,468589.100,0.000
123631.500,127103.100,123936.400,162354.700,37137.830,134758.900,124918.400,467803.300,0.000
122786.800,126234.700,123085.100,160107.900,36921.200,133836.000,124063.100,464761.300,0.000
121706.000,125122.400,121997.400,157036.400,36651.060,132652.400,122973.100,460967.900,0.000
121127.100,124527.400,121422.600,155512.800,36493.210,132016.700,122387.900,458751.100,0.000
121056.500,124455.700,121358.800,155687.400,36446.750,131937.100,122310.400,458157.500,0.000
120841.800,124234.700,121143.900,155514.300,36367.670,131700.200,122085.600,457135.300,0.000
120089.400,123458.700,120382.400,153611.600,36165.880,130874.000,121320.500,454413.300,0.000
119145.600,122485.100,119426.600,151063.000,35915.910,129839.600,120366.900,451104.000,0.000
118565.300,121887.500,118843.400,149631.000,35748.900,129208.200,119784.300,448936.200,0.000
118364.100,121679.300,118642.400,149455.300,35669.310,128995.100,119584.300,447961.700,0.000
118071.500,121375.600,118347.300,149065.100,35571.410,128676.700,119284.900,446697.300,0.000
117402.200,120685.100,117674.000,147449.700,35393.210,127939.100,118601.800,444218.200,0.000
116595.500,119853.200,116863.700,145377.700,35184.910,127050.200,117784.600,441308.900,0.000
116037.500,119278.100,116308.400,144067.500,35030.680,126437.600,117220.500,439174.700,0.000
115743.400,118976.800,116017.200,143631.100,34933.500,126118.700,116922.100,437867.700,0.000
115391.300,118617.800,115663.700,143072.300,34824.030,125737.800,116564.400,436380.000,0.000
114780.300,117992.400,115047.900,141680.500,34658.190,125073.400,115948.400,434065.400,0.000
114066.000,117259.700,114328.100,139974.700,34468.050,124297.600,115233.800,431450.800,0.000
113509.300,116689.400,113771.100,138745.300,34312.200,123694.200,114675.900,429331.000,0.000
113130.300,116300.200,113391.300,138084.200,34194.650,123281.500,114290.100,427753.900,0.000
112730.800,115886.100,112987.500,137380.600,34073.150,122840.700,113878.600,426097.400,0.000
112178.900,115314.500,112431.700,136177.400,33920.090,122233.500,113318.600,423951.100,0.000
111556.000,114671.500,111806.800,134798.000,33750.940,121552.400,112695.500,421628.800,0.000
111014.400,114114.700,111267.400,133673.600,33599.410,120960.100,112152.200,419582.400,0.000
110570.500,113659.600,110825.400,132857.900,33468.470,120476.700,111704.700,417848.000,0.000
110120.300,113197.500,110375.500,132033.600,33333.890,119988.800,111249.800,416097.900,0.000
109595.500,112659.500,109850.700,130951.000,33180.820,119419.400,110721.100,414106.800,0.000
109033.300,112084.500,109287.800,129801.000,33020.660,118809.400,110159.300,412037.100,0.000
108502.600,111541.300,108758.600,128740.700,32871.910,118232.800,109626.700,410071.600,0.000
108012.100,111037.300,108267.500,127789.700,32730.800,117699.600,109130.900,408225.400,0.000
107531.400,110542.900,107781.800,126835.000,32587.050,117176.300,108638.700,406389.800,0.000
107039.000,110036.900,107283.300,125743.100,32439.630,116639.800,108135.400,404456.400,0.000
106530.400,109512.900,106773.600,124735.600,32293.160,116084.500,107634.700,402535.900,0.000
106011.100,108976.700,106257.600,123899.500,32146.930,115514.700,107126.200,400698.900,0.000
105491.700,108440.100,105729.500,122966.800,31990.140,114944.800,106586.600,398817.600,0.000
104997.100,107929.900,105216.100,121678.900,31831.210,114403.800,106042.300,396756.100,0.000
104535.900,107455.700,104747.000,120219.900,31690.740,113898.900,105549.400,394595.900,0.000
104072.700,106980.200,104291.600,119043.300,31564.860,113390.700,105095.800,392545.900,0.000
103567.200,106461.600,103795.700,118021.000,31431.090,112837.500,104605.100,390516.800,0.000
103025.800,105905.900,103257.100,117000.600,31280.990,112248.500,104071.500,388445.800,0.000
102507.700,105375.400,102742.800,116203.800,31132.420,111687.100,103565.100,386541.000,0.000
102049.000,104906.500,102286.900,115633.600,30996.890,111192.300,103113.700,384863.900,0.000
101604.100,104449.300,101835.200,114993.300,30861.020,110711.800,102659.900,383183.100,0.000
101107.200,103936.200,101328.200,113961.000,30713.290,110169.300,102142.400,381211.700,0.000
100563.600,103373.800,100779.500,112774.500,30560.050,109570.700,101591.100,379070.300,0.000
100050.300,102844.100,100270.600,111908.900,30419.110,109004.500,101086.300,377140.800,0.000
99609.300,102392.300,99834.900,111354.900,30292.020,108521.200,100647.900,375499.300,0.000
99181.270,101953.700,99401.980,110727.100,30157.360,108055.900,100204.300,373847.300,0.000
98686.300,101444.500,98900.050,109684.600,30004.900,107517.500,99687.010,371863.700,0.000
98133.840,100876.800,98347.170,108495.900,29847.890,106915.900,99131.320,369689.200,0.000
97617.060,100347.600,97837.570,107671.900,29707.910,106352.200,98629.830,367752.300,0.000
97185.240,99905.350,97407.620,107168.300,29583.970,105882.100,98201.530,366129.100,0.000
96773.510,99480.490,96983.060,106504.800,29452.870,105435.000,97766.700,364457.000,0.000
96291.770,98981.650,96488.330,105371.400,29303.240,104907.300,97256.710,362415.400,0.000
95742.800,98414.390,95938.850,104173.400,29146.180,104303.000,96709.650,360229.000,0.000
95222.440,97877.830,95430.890,103517.700,29004.360,103730.300,96218.380,358397.700,0.000
94789.730,97431.410,95001.050,103207.500,28875.680,103256.100,95787.040,356928.700,0.000
94385.380,97013.480,94577.700,102512.400,28738.050,102814.600,95335.040,355315.800,0.000
93914.480,96528.940,94093.190,101252.600,28588.550,102297.900,94822.720,353283.400,0.000
93376.220,95975.730,93559.580,100041.200,28439.750,101706.900,94292.130,351163.300,0.000
92863.670,95446.650,93060.580,99414.800,28305.110,101143.600,93813.580,349424.000,0.000
92428.400,94996.670,92625.790,99097.410,28173.820,100666.500,93380.160,348024.800,0.000
92016.520,94572.050,92194.560,98412.850,28030.620,100219.900,92926.900,346490.000,0.000
91547.110,94089.730,91713.100,97241.880,27883.280,99712.050,92430.450,344590.600,0.000
91015.940,93544.780,91185.180,96104.730,27735.820,99136.130,91913.660,342607.300,0.000
90505.730,93022.410,90686.770,95441.660,27597.160,98581.630,91433.830,340932.300,0.000
90067.120,92572.420,90252.140,95053.100,27463.940,98104.050,90997.030,339553.000,0.000
89652.690,92142.860,89824.980,94382.650,27321.760,97650.740,90546.880,338066.100,0.000
89191.990,91665.020,89356.780,93326.840,27178.350,97144.600,90061.020,336261.700,0.000
88678.260,91136.660,88846.620,92279.520,27035.960,96583.590,89553.380,334354.100,0.000
88179.490,90627.380,88357.750,91585.670,26900.050,96042.020,89075.780,332669.300,0.000
87742.260,90180.810,87923.960,91127.050,26769.950,95569.400,88642.980,331227.000,0.000
87323.810,89751.260,87496.020,90474.770,26631.070,95119.270,88203.880,329707.100,0.000
86859.590,89274.240,87027.570,89536.210,26485.060,94616.330,87728.230,327932.400,0.000
86353.180,88752.280,86521.390,88576.970,26338.440,94063.120,87224.980,326049.500,0.000
85871.400,88254.290,86041.920,87855.270,26204.680,93533.880,86750.740,324309.800,0.000
85446.880,87815.740,85615.610,87331.140,26080.320,93066.800,86321.550,322758.500,0.000
85037.220,87393.240,85196.020,86697.090,25950.140,92618.290,85889.730,321160.600,0.000
84586.670,86931.410,84744.990,85869.560,25817.180,92128.070,85430.320,319371.800,0.000
84094.070,86428.680,84256.860,84991.300,25680.150,91596.470,84943.700,317472.100,0.000
83615.230,85939.760,83783.730,84241.580,25547.630,91080.680,84475.720,315646.600,0.000
83183.770,85497.320,83355.320,83654.040,25421.860,90614.020,84046.120,313975.300,0.000
82772.090,85073.690,82938.600,83031.170,25294.160,90165.420,83619.230,312309.500,0.000
82336.160,84625.730,82501.480,82300.720,25167.150,89684.980,83172.590,310536.500,0.000
81865.940,84140.590,82027.540,81497.410,25031.350,89166.390,82693.410,308675.600,0.000
81399.940,83657.800,81557.690,80728.800,24893.450,88654.700,82221.250,306847.400,0.000
80965.480,83209.570,81122.190,80088.830,24762.730,88180.840,81783.890,305141.600,0.000
80540.520,82774.180,80695.020,79468.130,24632.260,87722.790,81354.840,303463.500,0.000
80094.020,82318.880,80253.880,78808.680,24503.700,87242.750,80915.200,301735.000,0.000
79625.400,81841.520,79787.480,78069.170,24370.230,86737.390,80447.520,299938.000,0.000
79168.980,81375.050,79331.180,77299.230,24239.100,86241.670,79985.680,298139.600,0.000
78744.800,80938.560,78907.530,76632.180,24116.360,85776.980,79556.800,296441.300,0.000
78334.490,80515.000,78492.570,76025.610,23994.460,85325.470,79138.800,294795.300,0.000
77908.430,80075.300,78064.120,75429.100,23870.180,84854.450,78710.710,293135.400,0.000
77456.150,79606.430,77602.300,74736.770,23729.800,84355.210,78245.080,291403.500,0.000
77004.080,79137.160,77140.630,73958.410,23585.970,83858.160,77776.910,289630.700,0.000
76571.080,78690.750,76706.750,73260.520,23453.430,83387.290,77341.910,287928.700,0.000
76145.660,78256.030,76284.270,72649.590,23327.570,82931.980,76922.840,286289.400,0.000
75711.970,77815.630,75860.610,72091.380,23207.480,82468.010,76502.130,284672.300,0.000
75265.810,77360.950,75416.170,71442.480,23078.670,81986.640,76051.200,282999.300,0.000
74826.970,76911.610,74974.230,70677.500,22948.580,81508.930,75598.800,281267.600,0.000
74407.570,76481.980,74554.550,69973.910,22826.400,81051.230,75174.450,279583.600,0.000
73995.090,76056.410,74139.130,69365.610,22702.820,80599.700,74757.970,277957.600,0.000
73575.020,75617.770,73717.170,68832.700,22575.960,80132.970,74334.320,276366.300,0.000
73146.050,75165.800,73275.090,68209.710,22438.610,79652.310,73881.990,274720.000,0.000
72725.440,74722.990,72839.880,67449.410,22306.320,79180.070,73433.050,272997.900,0.000
72318.530,74298.230,72427.990,66741.490,22188.750,78724.630,73012.470,271312.000,0.000
71911.970,73876.840,72019.730,66140.090,22073.940,78275.050,72601.430,269687.300,0.000
71493.910,73447.660,71606.740,65635.840,21959.120,77820.440,72193.740,268111.300,0.000
71061.440,73007.310,71172.230,65045.380,21832.390,77358.230,71762.580,266486.300,0.000
70630.830,72568.200,70736.200,64300.130,21702.110,76896.740,71325.330,264770.600,0.000
70214.520,72139.700,70317.970,63593.450,21579.220,76442.950,70906.280,263069.700,0.000
69808.200,71717.440,69907.850,62992.780,21458.290,75992.630,70494.200,261420.800,0.000
69404.400,71294.000,69502.010,62502.770,21338.800,75537.440,70084.580,259830.100,0.000
68996.310,70861.730,69079.800,61936.330,21208.250,75076.140,69650.850,258202.300,0.000
68588.240,70429.820,68654.740,61215.070,21075.760,74616.920,69213.430,256484.800,0.000
68180.050,70002.160,68238.140,60526.230,20949.010,74161.040,68791.880,254777.600,0.000
67766.490,69573.950,67819.860,59932.210,20821.180,73706.540,68374.060,253122.300,0.000
67351.200,69151.400,67409.160,59452.050,20700.760,73257.830,67968.270,251538.900,0.000
66931.560,68728.250,66990.910,58907.950,20577.040,72811.650,67548.380,249940.500,0.000
66508.410,68300.970,66571.070,58213.390,20450.290,72363.310,67122.970,248264.400,0.000
66086.940,67875.580,66159.180,57543.820,20327.460,71913.980,66709.770,246606.200,0.000
65667.180,67450.130,65746.830,56954.240,20202.840,71463.120,66297.640,245015.800,0.000
65248.430,67023.060,65338.800,56473.230,20077.490,71009.030,65889.270,243508.500,0.000
64829.800,66596.260,64921.670,55933.320,19943.870,70556.040,65463.670,242013.800,0.000
64415.540,66175.640,64506.700,55250.970,19813.830,70110.820,65040.220,240455.900,0.000
64001.960,65756.590,64097.320,54592.550,19691.370,69669.660,64631.850,238876.200,0.000
63588.110,65336.110,63684.080,54002.890,19567.560,69229.910,64225.490,237342.400,0.000
63180.310,64920.670,63279.310,53522.850,19447.580,68792.580,63829.540,235898.500,0.000
62772.860,64504.670,62868.250,52995.560,19320.010,68353.660,63416.020,234464.300,0.000
62366.060,64088.890,62459.780,52337.590,19192.530,67914.200,62997.810,232970.300,0.000
61960.610,63673.960,62058.790,51704.880,19070.780,67473.770,62590.530,231451.800,0.000
61556.390,63259.560,61655.790,51126.920,18947.890,67033.520,62184.070,229957.600,0.000
61160.450,62854.930,61264.690,50655.090,18834.080,66602.450,61794.370,228543.000,0.000
60768.040,62454.390,60870.160,50148.750,18718.710,66179.170,61397.050,227126.500,0.000
60372.930,62050.830,60474.110,49524.070,18600.180,65753.200,60993.270,225656.300,0.000
59974.020,61642.270,60079.700,48922.470,18481.460,65319.100,60591.960,224196.000,0.000
59577.210,61232.430,59682.640,48357.670,18361.510,64884.390,60189.300,222753.500,0.000
59187.630,60829.550,59295.860,47887.810,18247.970,64456.610,59800.820,221360.800,0.000
58796.420,60426.640,58900.400,47386.950,18126.210,64030.930,59399.750,219943.300,0.000
58402.340,60021.090,58501.680,46779.690,18002.010,63603.310,58996.680,218452.800,0.000
58007.990,59616.090,58107.040,46197.470,17884.780,63174.820,58605.650,216967.000,0.000
57619.290,59218.520,57715.070,45636.760,17772.790,62754.420,58220.060,215488.600,0.000
57241.610,58830.000,57339.320,45165.880,17669.710,62343.450,57851.770,214051.800,0.000
56863.290,58435.580,56956.250,44673.400,17555.470,61927.580,57465.200,212600.300,0.000
56480.890,58038.500,56569.320,44087.300,17436.210,61505.890,57068.200,211084.300,0.000
56093.590,57641.460,56182.480,43526.730,17319.710,61081.540,56674.780,209573.800,0.000
55701.630,57240.660,55788.470,42967.340,17199.090,60656.260,56276.430,208071.400,0.000
55315.350,56845.980,55407.380,42485.880,17086.800,60238.760,55896.140,206617.400,0.000
54935.490,56458.420,55027.730,41994.200,16976.190,59829.790,55514.230,205187.800,0.000
54559.500,56075.110,54651.670,41430.230,16868.700,59423.910,55136.780,203718.900,0.000
54181.560,55689.180,54276.790,40900.460,16762.360,59014.730,54764.770,202244.700,0.000
53800.380,55298.390,53893.890,40358.150,16649.290,58602.770,54382.340,200800.400,0.000
53423.650,54913.420,53521.380,39883.670,16540.110,58193.450,54009.630,199424.800,0.000
53050.500,54533.550,53146.950,39403.570,16425.790,57785.290,53626.290,198058.300,0.000
52676.660,54150.560,52771.010,38860.440,16309.270,57374.980,53241.050,196644.300,0.000
52296.550,53757.530,52390.990,38351.570,16192.050,56960.670,52858.930,195225.100,0.000
51914.500,53362.510,52003.920,37815.430,16070.040,56545.790,52469.240,193826.200,0.000
51539.620,52978.360,51631.230,37337.180,15955.710,56136.530,52095.850,192478.500,0.000
51168.190,52599.200,51258.460,36856.590,15840.970,55733.080,51717.560,191138.400,0.000
50800.890,52223.280,50890.560,36327.730,15732.370,55334.070,51342.820,189784.900,0.000
50434.010,51847.870,50526.530,35840.100,15629.540,54935.240,50973.610,188432.700,0.000
50063.120,51468.180,50153.960,35313.250,15519.840,54533.110,50593.650,187053.000,0.000
49694.340,51089.710,49788.510,34839.730,15413.180,54131.670,50227.500,185702.400,0.000
49324.610,50709.230,49415.240,34364.000,15300.030,53731.580,49854.310,184353.500,0.000
48954.220,50329.200,49042.360,33837.930,15185.550,53332.310,49482.600,182986.200,0.000
48586.310,49952.990,48675.770,33353.950,15074.990,52933.040,49116.600,181640.200,0.000
48221.660,49577.380,48306.220,32827.530,14961.600,52532.860,48740.500,180263.300,0.000
47863.650,49206.900,47949.340,32354.290,14856.730,52137.550,48380.550,178894.200,0.000
47507.120,48838.040,47589.240,31882.210,14749.960,51747.850,48017.700,177529.400,0.000
47149.890,48469.930,47229.980,31363.670,14643.080,51359.420,47657.750,176145.100,0.000
46789.550,48101.790,46871.720,30889.570,14536.330,50967.090,47298.870,174777.400,0.000
46426.330,47730.610,46504.740,30369.090,14422.810,50571.310,46925.530,173398.600,0.000
46066.890,47361.450,46147.510,29897.160,14316.820,50179.500,46567.610,172041.800,0.000
45708.670,46993.020,45787.160,29423.010,14209.740,49792.720,46205.800,170686.000,0.000
45352.540,46627.040,45430.320,28905.910,14104.660,49409.710,45848.360,169302.200,0.000
44994.940,46258.750,45073.520,28439.250,13998.090,49024.000,45493.660,167937.200,0.000
44633.140,45885.270,44704.560,27924.080,13879.740,48631.680,45121.540,166613.700,0.000
44275.700,45517.940,44346.210,27452.510,13767.610,48240.800,44762.600,165367.000,0.000
43924.570,45156.440,43989.100,26971.990,13657.310,47854.820,44401.640,164087.300,0.000
43580.450,44799.640,43639.580,26441.430,13552.080,47470.940,44046.410,162715.900,0.000
43236.450,44442.400,43294.730,25962.160,13450.380,47085.260,43697.110,161356.400,0.000
42887.780,44082.170,42942.820,25445.130,13343.630,46701.130,43337.940,160050.500,0.000
42539.570,43726.010,42600.720,24981.010,13243.830,46325.010,42994.010,158818.600,0.000
42189.240,43368.950,42251.550,24501.660,13139.850,45952.630,42642.210,157552.000,0.000
41841.650,43015.000,41904.300,23963.140,13037.770,45582.450,42294.720,156201.700,0.000
41499.180,42666.480,41563.880,23480.770,12941.400,45215.120,41957.190,154862.100,0.000
41152.900,42311.550,41214.550,22969.040,12836.420,44841.850,41604.900,153552.600,0.000
40800.840,41949.300,40866.750,22509.620,12728.850,44458.970,41256.020,152302.700,0.000
40448.310,41588.050,40511.640,22028.350,12615.530,44076.520,40896.650,151028.300,0.000
40103.910,41234.580,40163.990,21483.910,12506.490,43700.020,40543.190,149683.000,0.000
39765.380,40882.060,39825.300,21001.560,12402.510,43323.990,40199.050,148353.500,0.000
39432.040,40532.170,39486.370,20508.070,12298.660,42950.730,39850.010,147047.000,0.000
39106.850,40193.500,39162.220,20081.780,12206.410,42584.860,39518.540,145787.400,0.000
38779.780,39854.980,38830.780,19628.810,12108.870,42221.610,39177.040,144518.200,0.000
38447.490,39513.250,38495.710,19098.340,12007.030,41856.940,38834.240,143209.900,0.000
38111.510,39170.200,38161.610,18626.810,11906.460,41490.800,38497.760,141927.000,0.000
37773.400,38826.450,37821.380,18149.190,11803.990,41127.720,38156.590,140646.400,0.000
37433.790,38481.990,37487.330,17730.680,11706.400,40765.800,37828.990,139381.200,0.000
37089.440,38129.820,37142.240,17267.590,11598.520,40397.230,37482.800,138113.900,0.000
36749.150,37781.140,36801.500,16723.550,11492.280,40029.210,37136.200,136842.800,0.000
36416.710,37442.150,36473.080,16250.000,11396.710,39669.540,36806.290,135611.500,0.000
36087.430,37103.940,36141.700,15779.820,11299.390,39313.740,36473.730,134376.400,0.000
35760.170,36766.160,35816.180,15371.760,11205.310,38957.800,36152.180,133133.800,0.000
35433.840,36430.290,35484.590,14922.330,11106.750,38603.940,35818.550,131885.500,0.000
35111.980,36100.460,35158.750,14392.520,11011.080,38254.500,35487.120,130651.200,0.000
34790.520,35771.390,34837.570,13927.990,10917.350,37904.650,35161.750,129447.300,0.000
34466.410,35436.700,34508.960,13468.360,10816.940,37550.710,34826.790,128223.000,0.000
34142.020,35099.840,34185.940,13077.450,10719.780,37193.070,34502.950,126995.300,0.000
33812.770,34759.180,33851.420,12643.390,10613.210,36832.360,34162.440,125772.300,0.000
33486.730,34423.880,33522.210,12125.400,10508.930,36476.460,33825.030,124560.000,0.000
33170.480,34100.520,33208.950,11679.520,10418.100,36132.230,33508.900,123366.300,0.000
32855.950,33780.640,32893.710,11246.940,10327.710,35793.720,33192.490,122149.300,0.000
32537.890,33457.610,32580.120,10879.010,10237.570,35451.260,32882.860,120938.300,0.000
32216.380,33126.160,32253.800,10461.050,10136.220,35101.090,32553.100,119736.700,0.000
31896.090,32791.850,31928.150,9954.143,10032.840,34746.800,32222.040,118537.900,0.000
31573.930,32457.310,31607.000,9512.512,9932.483,34391.890,31900.120,117357.800,0.000
31250.790,32125.350,31283.470,9088.043,9832.477,34042.340,31573.860,116171.100,0.000
30936.300,31805.930,30975.360,8741.376,9746.706,33704.570,31266.720,114998.500,0.000
30626.060,31491.410,30662.820,8350.870,9658.814,33370.930,30951.020,113829.600,0.000
30315.590,31174.880,30348.740,7866.638,9567.009,33032.920,30634.600,112665.600,0.000
30005.710,30855.670,30038.960,7443.834,9475.163,32691.890,30324.500,111525.700,0.000
29697.520,30533.840,29726.910,7037.740,9378.789,32350.380,30004.960,110377.700,0.000
29391.360,30214.130,29423.580,6699.502,9287.599,32009.080,29695.330,109238.000,0.000
29083.410,29896.770,29112.340,6308.746,9191.708,31670.740,29374.950,108094.900,0.000
28775.610,29582.730,28801.780,5824.335,9096.288,31336.960,29059.370,106960.000,0.000
28466.390,29265.100,28492.140,5401.488,9000.594,30999.480,28750.650,105850.300,0.000
28154.190,28942.040,28173.860,4995.455,8897.660,30656.740,28430.030,104732.000,0.000
27842.390,28620.910,27862.780,4651.692,8800.719,30316.790,28120.130,103642.200,0.000
27530.850,28299.130,27545.940,4248.458,8700.707,29979.970,27799.710,102540.800,0.000
27223.440,27980.760,27234.310,3748.635,8604.312,29644.870,27483.930,101414.600,0.000
26919.340,27667.440,26931.860,3314.939,8514.898,29311.450,27180.580,100323.400,0.000
26618.120,27358.500,26630.210,2910.610,8425.110,28982.790,26874.510,99247.890,0.000
26320.470,27054.670,26337.780,2569.487,8341.265,28659.990,26582.360,98206.530,0.000
26019.270,26745.790,26032.530,2162.651,8247.939,28335.770,26274.020,97134.550,0.000
25716.410,26433.570,25725.230,1655.485,8151.753,28006.880,25962.000,96007.140,0.000
25415.040,26122.420,25424.960,1210.015,8060.291,27675.970,25659.070,94892.910,0.000
25118.040,25815.720,25126.350,794.328,7969.700,27350.080,25355.730,93770.410,0.000
24827.480,25518.510,24839.730,442.027,7888.468,27032.330,25069.010,92669.020,0.000
24535.070,25219.890,24543.650,23.147,7801.673,26715.720,24768.430,91545.950,0.000
24241.370,24917.510,24246.760,-497.433,7714.208,26397.930,24468.010,90377.580,0.000
23948.770,24614.590,23955.170,-954.687,7631.200,26081.010,24179.200,89224.980,0.000
23655.210,24312.380,23658.910,-1374.884,7544.445,25764.830,23884.900,88058.310,0.000
23361.580,24014.510,23368.280,-1729.656,7459.406,25446.490,23596.210,86899.050,0.000
23067.000,23714.150,23069.300,-2142.784,7365.943,25124.220,23288.900,85741.990,0.000
22776.060,23413.790,22776.010,-2646.293,7275.653,24804.640,22986.210,84588.790,0.000
22487.790,23116.350,22491.750,-3086.736,7191.816,24489.800,22697.710,83480.430,0.000
22200.660,22821.030,22203.860,-3488.986,7104.588,24178.110,22404.780,82372.990,0.000
21919.130,22532.460,21924.260,-3823.261,7024.317,23870.190,22124.990,81267.010,0.000
21638.320,22243.860,21636.980,-4211.789,6939.984,23562.980,21833.570,80173.480,0.000
21357.080,21955.430,21351.060,-4690.482,6856.955,23259.080,21545.880,79118.120,0.000
21073.410,21668.220,21069.960,-5117.807,6776.542,22958.770,21267.250,78092.830,0.000
20783.940,21376.210,20780.620,-5516.847,6685.862,22649.700,20972.520,77014.800,0.000
20495.330,21079.560,20495.420,-5850.009,6595.353,22326.500,20679.640,75918.870,0.000
20214.200,20783.160,20209.540,-6225.550,6506.288,22007.260,20382.460,74837.600,0.000
19941.540,20497.730,19934.780,-6672.243,6427.963,21706.470,20102.100,73791.370,0.000
19667.400,20216.030,19664.110,-7055.650,6354.177,21410.970,19833.560,72788.660,0.000
19386.530,19927.560,19381.710,-7414.490,6271.128,21109.200,19552.440,71752.490,0.000
19103.830,19638.380,19101.250,-7725.892,6187.388,20803.730,19275.800,70701.320,0.000
18822.100,19351.040,18815.190,-8079.242,6097.700,20498.580,18985.510,69656.400,0.000
18545.680,19068.690,18536.630,-8489.190,6011.755,20196.600,18700.380,68618.820,0.000
18270.660,18785.600,18263.880,-8836.157,5928.989,19893.160,18424.410,67601.260,0.000
17995.300,18499.210,17985.830,-9161.026,5842.615,19588.600,18142.350,66579.120,0.000
17725.540,18218.790,17717.430,-9435.108,5765.042,19289.820,17874.110,65573.230,0.000
17454.960,17938.660,17441.710,-9745.745,5681.551,18992.470,17591.780,64557.370,0.000
17181.410,17657.510,17165.030,-10111.420,5595.601,18694.000,17309.050,63519.430,0.000
16910.180,17378.500,16894.760,-10420.110,5515.029,18396.230,17037.370,62498.990,0.000
16643.630,17102.630,16624.700,-10717.270,5435.369,18102.010,16763.540,61500.650,0.000
16378.640,16830.290,16361.450,-10975.460,5360.737,17811.830,16502.500,60531.220,0.000
16106.660,16552.520,16084.840,-11263.110,5274.339,17517.300,16224.270,59533.310,0.000
15831.370,16271.110,15805.900,-11589.730,5183.965,17218.450,15941.860,58504.100,0.000
15560.510,15989.830,15534.960,-11867.820,5100.060,16920.940,15670.030,57500.140,0.000
15298.250,15714.140,15267.610,-12156.510,5019.416,16631.250,15400.820,56517.320,0.000
15042.110,15448.090,15010.870,-12413.620,4945.872,16349.840,15145.950,55568.720,0.000
14780.170,15177.730,14743.930,-12683.400,4863.028,16064.360,14874.690,54598.940,0.000
14512.610,14901.710,14475.020,-12976.430,4777.250,15770.720,14601.250,53591.110,0.000
14243.400,14624.570,14209.410,-13227.460,4694.345,15474.240,14334.180,52610.460,0.000
13973.420,14346.990,13939.540,-13503.110,4608.920,15179.890,14060.050,51665.640,0.000
13709.090,14078.320,13680.550,-13751.700,4533.210,14894.410,13800.790,50771.530,0.000
13450.670,13816.380,13421.480,-14002.560,4459.084,14618.270,13539.590,49857.000,0.000
13193.880,13552.930,13164.580,-14266.270,4385.214,14340.810,13283.130,48885.270,0.000
12936.750,13287.300,12909.840,-14487.620,4312.251,14058.250,13030.640,47927.420,0.000
12682.190,13024.330,12651.900,-14738.950,4237.604,13778.500,12771.090,46991.290,0.000
12430.430,12763.890,12400.160,-14973.500,4167.377,13502.230,12522.190,46079.240,0.000
12176.050,12499.650,12141.550,-15208.600,4090.128,13223.450,12261.420,45162.720,0.000
11921.740,12238.640,11886.050,-15446.830,4013.025,12944.210,12001.350,44253.700,0.000
11666.480,11980.120,11632.380,-15651.190,3937.656,12667.230,11747.510,43363.910,0.000
11405.400,11712.400,11368.850,-15902.030,3855.125,12387.840,11487.050,42431.820,0.000
11141.100,11438.070,11108.570,-16138.080,3774.437,12105.170,11236.550,41500.060,0.000
10879.590,11167.800,10847.590,-16363.830,3692.964,11826.520,10978.870,40591.840,0.000
10626.280,10910.150,10597.510,-16586.180,3618.967,11553.870,10727.730,39747.630,0.000
10373.540,10654.350,10349.470,-16782.200,3546.385,11279.230,10478.640,38977.920,0.000
10119.180,10395.040,10091.940,-17036.760,3466.388,11003.490,10218.570,38166.560,0.000
9872.163,10142.400,9843.845,-17280.850,3393.023,10732.290,9972.874,37348.640,0.000
9629.985,9891.146,9593.859,-17510.670,3317.159,10463.150,9720.581,36555.670,0.000
9388.509,9636.357,9344.670,-17736.350,3239.937,10193.470,9469.295,35800.510,0.000
9143.803,9379.947,9095.826,-17939.870,3162.927,9922.922,9220.393,35095.730,0.000
8896.170,9129.694,8844.985,-18204.250,3085.487,9655.835,8965.202,34351.180,0.000
8647.405,8881.181,8602.877,-18462.350,3014.178,9387.602,8722.041,33606.130,0.000
8391.129,8616.700,8349.317,-18709.270,2932.212,9109.361,8465.388,32873.840,0.000
8132.712,8348.033,8094.564,-18949.800,2848.366,8829.938,8209.423,32152.500,0.000
7879.924,8088.935,7846.490,-19165.520,2770.709,8556.306,7961.101,31460.740,0.000
7633.417,7837.890,7597.770,-19443.170,2692.584,8288.395,7707.708,30726.140,0.000
7394.095,7593.781,7358.872,-19718.690,2621.178,8026.822,7467.396,29986.900,0.000
7159.012,7352.269,7118.266,-19981.300,2548.665,7769.759,7222.637,29238.360,0.000
6926.770,7113.337,6881.362,-20237.450,2478.662,7515.914,6984.412,28471.680,0.000
6693.652,6872.928,6646.552,-20476.740,2409.712,7262.075,6749.588,27719.460,0.000
6455.239,6625.893,6404.410,-20781.970,2332.574,7003.169,6499.252,26931.660,0.000
6213.275,6373.193,6164.364,-21084.560,2254.991,6733.377,6251.335,26154.540,0.000
5972.287,6122.138,5921.277,-21364.470,2179.071,6462.823,6001.129,25380.520,0.000
5734.956,5880.496,5685.904,-21622.570,2113.018,6207.164,5767.497,24597.500,0.000
5499.640,5641.168,5455.245,-21854.630,2049.210,5957.977,5541.591,23840.240,0.000
5265.641,5400.179,5220.099,-22145.830,1977.677,5703.100,5302.088,23066.160,0.000
5032.265,5160.486,4990.058,-22428.960,1907.473,5444.983,5069.029,22322.270,0.000
4800.955,4922.163,4757.271,-22686.950,1835.329,5191.888,4830.920,21592.320,0.000
4574.340,4688.800,4528.714,-22923.910,1766.854,4943.687,4599.021,20852.950,0.000
4345.854,4454.320,4297.410,-23139.620,1697.689,4691.315,4369.149,20134.190,0.000
4115.953,4220.105,4059.800,-23417.010,1624.911,4439.257,4131.639,19396.910,0.000
3888.441,3989.961,3832.932,-23682.950,1560.319,4193.035,3908.245,18690.830,0.000
3658.652,3750.807,3602.389,-23921.290,1490.949,3942.990,3675.577,17998.650,0.000
3432.484,3513.963,3376.909,-24137.540,1422.677,3691.526,3444.841,17299.130,0.000
3210.072,3289.089,3157.747,-24329.420,1360.459,3447.319,3222.596,16624.180,0.000
2987.498,3065.788,2936.262,-24579.840,1299.406,3211.324,2999.375,15931.580,0.000
2765.941,2839.142,2720.284,-24825.250,1242.487,2976.233,2787.198,15260.850,0.000
2540.757,2605.655,2493.163,-25057.440,1174.119,2731.577,2558.936,14583.140,0.000
2317.087,2374.231,2266.400,-25275.530,1103.243,2482.522,2329.420,13876.560,0.000
2099.748,2149.623,2044.919,-25472.730,1035.713,2236.776,2104.584,13172.260,0.000
1888.414,1934.434,1824.609,-25732.220,970.029,1999.179,1875.627,12424.920,0.000
1668.669,1715.102,1605.743,-25995.780,906.234,1761.040,1656.163,11676.020,0.000
1426.793,1463.758,1362.916,-26260.040,821.454,1505.438,1418.393,10903.040,0.000
1188.659,1207.971,1123.828,-26503.910,737.823,1248.416,1185.411,10107.860,0.000
966.286,970.701,902.274,-26701.390,670.016,1003.395,965.894,9347.656,0.000
743.634,735.065,677.007,-26949.590,599.281,759.622,737.406,8573.266,0.000
522.456,511.252,459.885,-27189.930,533.917,521.025,520.830,7821.807,0.000
308.560,310.648,249.135,-27400.230,475.314,294.751,306.887,7083.292,0.000
100.181,117.038,45.488,-27584.970,422.829,72.722,101.082,6344.173,0.000
-115.823,-95.267,-167.963,-27754.650,360.508,-161.708,-112.325,5628.538,0.000
-349.931,-342.110,-405.442,-27996.930,276.355,-414.896,-350.162,4893.664,0.000
-578.765,-597.058,-633.282,-28228.550,199.457,-665.072,-573.756,4199.643,0.000
-782.535,-818.395,-840.545,-28423.690,140.091,-892.149,-785.999,3521.870,0.000
-979.509,-1018.378,-1038.828,-28600.080,86.988,-1109.329,-990.052,2820.776,0.000
-1190.927,-1232.703,-1250.790,-28772.270,20.865,-1339.453,-1203.458,2122.747,0.000
-1408.595,-1457.865,-1473.876,-29015.820,-55.692,-1579.788,-1431.871,1394.192,0.000
-1619.482,-1677.259,-1683.967,-29251.070,-120.203,-1814.354,-1642.276,690.589,0.000
-1827.288,-1891.189,-1892.329,-29464.840,-180.227,-2039.178,-1851.398,-11.782,0.000
-2040.077,-2106.442,-2100.011,-29665.740,-240.210,-2261.939,-2056.850,-743.877,0.000
-2260.468,-2329.408,-2313.096,-29854.750,-306.826,-2490.686,-2264.536,-1479.351,0.000
-2469.109,-2540.020,-2522.755,-30104.440,-372.693,-2714.010,-2476.828,-2254.533,0.000
-2661.562,-2731.499,-2712.801,-30338.230,-423.232,-2927.157,-2671.014,-3008.732,0.000
-2861.829,-2936.925,-2914.464,-30554.810,-483.095,-3148.637,-2879.129,-3758.026,0.000
-3065.865,-3152.806,-3121.408,-30761.930,-549.563,-3379.287,-3093.520,-4518.924,0.000
-3261.819,-3360.496,-3322.457,-30944.200,-610.758,-3606.164,-3303.079,-5257.373,0.000
-3458.112,-3567.183,-3527.664,-31185.230,-673.149,-3828.162,-3515.884,-6034.836,0.000
-3661.286,-3778.451,-3730.959,-31426.030,-734.298,-4050.656,-3717.099,-6811.820,0.000
-3868.849,-3989.897,-3939.235,-31654.210,-798.488,-4271.068,-3922.454,-7600.479,0.000
-4072.915,-4193.016,-4139.911,-31870.800,-854.763,-4483.522,-4117.770,-8424.359,0.000
-4273.290,-4392.590,-4334.250,-32061.670,-905.734,-4694.136,-4308.872,-9249.020,0.000
-4471.917,-4591.651,-4530.895,-32300.430,-961.547,-4907.203,-4512.049,-10107.080,0.000
-4669.376,-4787.729,-4720.493,-32529.030,-1015.027,-5121.607,-4708.059,-10950.100,0.000
-4870.008,-4986.556,-4917.337,-32746.750,-1075.014,-5339.361,-4913.756,-11797.430,0.000
-5070.507,-5191.344,-5115.373,-32957.210,-1135.893,-5557.896,-5114.484,-12660.540,0.000
-5266.607,-5399.235,-5311.562,-33144.500,-1193.207,-5770.652,-5305.475,-13499.700,0.000
-5459.554,-5604.004,-5511.793,-33378.900,-1253.305,-5980.004,-5501.564,-14354.410,0.000
-5654.265,-5807.131,-5710.225,-33603.140,-1315.811,-6196.222,-5694.923,-15180.630,0.000
-5855.068,-6013.058,-5915.514,-33823.130,-1386.067,-6415.434,-5901.634,-16007.330,0.000
-6053.818,-6216.740,-6112.333,-34038.370,-1448.996,-6627.495,-6099.567,-16845.230,0.000
-6245.927,-6418.781,-6301.837,-34223.760,-1504.418,-6837.267,-6289.381,-17643.720,0.000
-6435.583,-6617.077,-6495.172,-34448.120,-1562.180,-7046.864,-6486.458,-18446.430,0.000
-6622.083,-6802.659,-6679.760,-34653.090,-1613.525,-7250.432,-6670.645,-19217.300,0.000
-6807.623,-6992.745,-6867.755,-34840.370,-1668.663,-7454.731,-6861.795,-19974.620,0.000
-6993.566,-7193.708,-7055.271,-35014.250,-1724.459,-7662.964,-7050.448,-20722.880,0.000
-7181.319,-7388.684,-7241.817,-35162.710,-1778.382,-7866.554,-7234.289,-21429.630,0.000
-7368.702,-7576.021,-7431.821,-35354.380,-1834.464,-8063.835,-7422.541,-22149.720,0.000
-7551.715,-7761.709,-7614.949,-35523.970,-1885.372,-8261.541,-7599.013,-22839.430,0.000
-7734.616,-7950.244,-7803.444,-35682.180,-1940.646,-8464.412,-7786.155,-23523.290,0.000
-7916.316,-8140.577,-7988.316,-35844.040,-1994.662,-8670.236,-7972.813,-24225.980,0.000
-8098.557,-8333.864,-8170.505,-35988.600,-2047.088,-8876.047,-8157.177,-24911.290,0.000
-8285.609,-8530.867,-8358.826,-36173.160,-2104.992,-9079.935,-8350.371,-25616.040,0.000
-8474.665,-8728.366,-8542.959,-36335.460,-2161.792,-9284.255,-8535.583,-26292.730,0.000
-8661.754,-8920.643,-8729.750,-36487.130,-2221.669,-9488.051,-8726.597,-26962.480,0.000
-8840.410,-9098.314,-8906.984,-36633.320,-2273.257,-9682.522,-8905.538,-27637.440,0.000
-9010.833,-9267.914,-9076.236,-36747.220,-2316.067,-9866.668,-9073.728,-28279.250,0.000
-9181.514,-9443.675,-9251.359,-36893.510,-2362.348,-10050.940,-9248.685,-28936.120,0.000
-9360.269,-9629.482,-9429.464,-37022.960,-2412.692,-10246.660,-9420.063,-29572.020,0.000
-9543.776,-9818.248,-9616.313,-37151.010,-2471.814,-10449.420,-9604.891,-30214.040,0.000
-9720.606,-9999.085,-9795.153,-37276.730,-2524.147,-10644.230,-9783.576,-30874.460,0.000
-9893.577,-10177.920,-9968.496,-37370.110,-2570.084,-10831.700,-9956.402,-31512.530,0.000
-10067.080,-10359.400,-10144.570,-37495.920,-2619.799,-11021.980,-10136.130,-32175.290,0.000
-10238.660,-10539.120,-10311.050,-37602.130,-2664.449,-11213.330,-10302.470,-32821.080,0.000
-10409.910,-10716.740,-10479.860,-37708.990,-2710.936,-11399.080,-10474.270,-33474.680,0.000
-10581.960,-10887.270,-10647.320,-37830.340,-2758.020,-11582.700,-10645.410,-34160.330,0.000
-10758.120,-11061.080,-10819.620,-37936.610,-2810.478,-11772.600,-10820.420,-34835.130,0.000
-10931.210,-11241.830,-10998.510,-38078.360,-2867.631,-11963.610,-11004.700,-35528.250,0.000
-11092.840,-11418.910,-11164.970,-38200.990,-2913.975,-12149.050,-11173.810,-36198.540,0.000
-11250.290,-11598.500,-11331.630,-38326.390,-2961.003,-12335.030,-11346.990,-36870.530,0.000
-11406.080,-11773.990,-11494.250,-38456.850,-3006.150,-12520.540,-11514.030,-37549.690,0.000
-11562.870,-11941.980,-11658.010,-38561.260,-3051.541,-12703.710,-11679.280,-38192.970,0.000
-11720.200,-12107.130,-11827.800,-38702.250,-3101.737,-12884.470,-11854.050,-38849.020,0.000
-11873.630,-12266.500,-11986.590,-38826.720,-3143.175,-13060.970,-12015.500,-39482.750,0.000
-12027.010,-12424.730,-12145.730,-38950.680,-3184.366,-13235.690,-12181.910,-40113.140,0.000
-12180.520,-12581.060,-12300.510,-39076.040,-3223.472,-13407.190,-12342.500,-40746.690,0.000
-12341.120,-12747.180,-12460.750,-39182.470,-3268.196,-13584.290,-12504.710,-41353.750,0.000
-12510.940,-12925.970,-12634.790,-39340.650,-3325.220,-13772.520,-12684.420,-41991.230,0.000
-12676.880,-13100.430,-12800.480,-39488.590,-3376.064,-13958.470,-12853.820,-42613.200,0.000
-12837.110,-13273.380,-12966.290,-39634.130,-3426.748,-14139.570,-13025.400,-43228.650,0.000
-12995.460,-13444.580,-13129.340,-39783.930,-3477.316,-14322.680,-13193.970,-43849.560,0.000
-13150.520,-13608.960,-13288.380,-39914.100,-3525.207,-14503.220,-13360.660,-44443.050,0.000
-13297.100,-13762.870,-13442.740,-40078.700,-3566.804,-14669.540,-13525.580,-45048.440,0.000
-13442.290,-13911.540,-13588.410,-40219.870,-3599.493,-14829.790,-13673.930,-45626.670,0.000
-13604.330,-14080.250,-13753.280,-40368.910,-3648.364,-15004.730,-13840.970,-46211.320,0.000
-13780.520,-14267.170,-13929.520,-40534.360,-3709.379,-15194.820,-14016.500,-46812.800,0.000
-13956.580,-14449.280,-14104.190,-40681.370,-3769.756,-15387.420,-14189.540,-47389.010,0.000
-14124.020,-14618.080,-14274.000,-40866.050,-3825.963,-15569.880,-14362.630,-47982.460,0.000
-14284.930,-14780.280,-14431.350,-41029.970,-3873.622,-15744.680,-14521.470,-48549.530,0.000
-14448.610,-14948.130,-14596.060,-41195.110,-3928.215,-15924.180,-14691.940,-49113.460,0.000
-14613.420,-15117.300,-14761.510,-41366.750,-3983.558,-16105.220,-14860.000,-49684.330,0.000
-14778.430,-15285.030,-14926.940,-41516.670,-4037.586,-16283.180,-15023.420,-50234.110,0.000
-14944.250,-15453.650,-15096.470,-41704.940,-4095.002,-16459.890,-15193.570,-50817.300,0.000
-15107.780,-15619.750,-15257.320,-41869.570,-4146.440,-16635.390,-15353.290,-51380.940,0.000
-15270.600,-15784.960,-15420.780,-42034.040,-4198.893,-16808.540,-15519.760,-51939.570,0.000
-15431.280,-15945.110,-15577.750,-42206.480,-4245.306,-16975.930,-15676.920,-52509.060,0.000
-15593.810,-16105.900,-15733.360,-42355.830,-4290.304,-17142.660,-15829.510,-53055.870,0.000
-15760.100,-16273.920,-15897.410,-42544.680,-4344.296,-17315.460,-15994.590,-53627.360,0.000
-15921.120,-16437.090,-16053.030,-42713.780,-4394.067,-17487.570,-16149.730,-54179.020,0.000
-16076.070,-16593.900,-16208.940,-42880.860,-4442.657,-17653.680,-16307.480,-54726.370,0.000
-16231.910,-16751.880,-16364.290,-43053.570,-4489.881,-17819.660,-16460.980,-55282.750,0.000
-16394.000,-16914.340,-16523.910,-43205.870,-4540.801,-17990.880,-16617.820,-55822.840,0.000
-16558.410,-17077.850,-16688.840,-43399.210,-4595.871,-18162.100,-16783.110,-56399.700,0.000
-16722.180,-17240.470,-16845.790,-43575.200,-4644.537,-18330.130,-16933.680,-56971.760,0.000
-16886.320,-17402.880,-17005.440,-43754.370,-4696.292,-18498.160,-17090.520,-57554.790,0.000
-17039.890,-17556.790,-17153.750,-43935.460,-4740.778,-18661.280,-17240.570,-58154.380,0.000
-17182.340,-17702.770,-17293.200,-44086.570,-4778.576,-18818.220,-17385.710,-58745.930,0.000
-17325.970,-17847.960,-17439.200,-44276.610,-4823.030,-18976.330,-17541.240,-59391.980,0.000
-17474.200,-17998.840,-17583.940,-44448.260,-4867.665,-19138.290,-17688.180,-60047.190,0.000
-17624.350,-18157.090,-17735.610,-44621.160,-4916.090,-19300.970,-17841.000,-60721.250,0.000
-17771.390,-18307.020,-17882.170,-44800.080,-4959.326,-19458.760,-17985.940,-61418.870,0.000
-17920.320,-18453.200,-18028.590,-44951.100,-5002.243,-19615.920,-18129.160,-62103.590,0.000
-18071.960,-18606.880,-18182.090,-45132.050,-5051.574,-19775.470,-18281.860,-62820.510,0.000
-18215.360,-18752.830,-18322.550,-45284.970,-5090.831,-19929.290,-18418.780,-63523.090,0.000
-18349.360,-18887.330,-18459.210,-45440.630,-5126.695,-20076.620,-18558.290,-64232.820,0.000
-18481.050,-19023.020,-18592.680,-45611.000,-5161.975,-20224.390,-18694.590,-64957.380,0.000
-18617.610,-19167.230,-18728.590,-45757.050,-5200.632,-20376.240,-18832.740,-65654.610,0.000
-18754.660,-19308.890,-18867.030,-45929.860,-5240.902,-20527.140,-18981.150,-66375.490,0.000
-18890.830,-19444.380,-18998.800,-46079.520,-5275.867,-20678.060,-19122.020,-67089.990,0.000
-19033.210,-19589.770,-19143.380,-46246.480,-5323.586,-20836.000,-19276.050,-67825.770,0.000
-19174.360,-19739.970,-19286.860,-46432.260,-5373.643,-20993.720,-19423.900,-68585.950,0.000
-19307.910,-19883.290,-19420.840,-46579.680,-5414.082,-21142.420,-19557.840,-69322.770,0.000
-19433.320,-20017.200,-19550.620,-46738.890,-5447.675,-21282.920,-19689.020,-70080.800,0.000
-19554.410,-20144.510,-19671.650,-46867.120,-5472.581,-21420.220,-19806.410,-70823.370,0.000
-19685.490,-20279.910,-19806.020,-47010.810,-5507.550,-21562.230,-19937.990,-71580.450,0.000
-19824.470,-20424.230,-19945.840,-47183.230,-5549.393,-21712.240,-20075.650,-72365.470,0.000
-19959.710,-20564.140,-20081.150,-47330.610,-5588.745,-21863.210,-20213.130,-73133.090,0.000
-20088.780,-20695.180,-20213.720,-47491.660,-5625.460,-22006.900,-20353.030,-73914.400,0.000
-20215.740,-20826.470,-20339.650,-47619.150,-5657.493,-22146.790,-20479.880,-74659.520,0.000
-20341.830,-20961.690,-20472.200,-47756.290,-5694.917,-22285.960,-20614.130,-75391.480,0.000
-20463.340,-21093.840,-20600.200,-47910.710,-5728.844,-22422.560,-20742.030,-76121.020,0.000
-20591.080,-21231.370,-20731.200,-48039.160,-5765.816,-22567.590,-20871.050,-76813.150,0.000
-20725.290,-21370.210,-20868.900,-48189.680,-5810.042,-22720.080,-21010.140,-77509.240,0.000
-20852.080,-21495.750,-20992.590,-48308.030,-5843.465,-22863.460,-21133.820,-78159.710,0.000
-20972.320,-21616.940,-21114.760,-48429.460,-5874.015,-22996.600,-21262.270,-78787.630,0.000
-21090.290,-21741.180,-21233.850,-48564.160,-5902.957,-23127.340,-21386.740,-79407.150,0.000
-21210.610,-21870.820,-21356.530,-48670.720,-5936.906,-23262.670,-21511.580,-79986.940,0.000
-21333.260,-22004.910,-21487.640,-48798.770,-5979.445,-23401.080,-21646.390,-80581.070,0.000
-21459.510,-22141.310,-21616.080,-48905.210,-6021.225,-23541.640,-21773.090,-81158.560,0.000
-21592.050,-22277.740,-21751.470,-49023.080,-6068.250,-23685.350,-21908.730,-81733.090,0.000
-21723.170,-22406.550,-21880.120,-49146.740,-6109.077,-23827.030,-22037.270,-82291.390,0.000
-21856.330,-22537.570,-22008.260,-49236.900,-6149.035,-23970.520,-22165.400,-82801.350,0.000
-21995.820,-22677.990,-22145.640,-49352.030,-6196.520,-24114.790,-22302.130,-83325.070,0.000
-22135.950,-22818.110,-22276.490,-49442.330,-6237.321,-24252.530,-22422.010,-83822.390,0.000
-22276.050,-22953.490,-22409.440,-49537.050,-6277.958,-24388.070,-22547.180,-84308.130,0.000
-22410.380,-23081.350,-22534.710,-49640.140,-6314.296,-24523.610,-22669.960,-84782.800,0.000
-22535.570,-23207.910,-22652.940,-49713.300,-6347.661,-24657.740,-22790.870,-85208.240,0.000
-22655.220,-23337.080,-22773.610,-49807.520,-6384.984,-24791.670,-22919.810,-85630.450,0.000
-22773.110,-23464.200,-22891.930,-49877.850,-6420.749,-24927.620,-23040.530,-86010.910,0.000
-22890.460,-23588.640,-23017.340,-49959.200,-6459.612,-25062.610,-23166.890,-86370.020,0.000
-23007.580,-23708.400,-23138.750,-50056.430,-6493.440,-25190.730,-23282.930,-86715.380,0.000
-23135.030,-23833.490,-23263.950,-50134.070,-6530.809,-25319.490,-23399.330,-87023.480,0.000
-23271.390,-23967.530,-23397.150,-50238.230,-6578.130,-25456.290,-23531.980,-87341.880,0.000
-23405.880,-24100.100,-23520.710,-50316.310,-6620.872,-25597.700,-23659.150,-87621.740,0.000
-23541.670,-24234.390,-23648.450,-50405.020,-6666.109,-25739.090,-23794.100,-87886.610,0.000
-23675.800,-24365.760,-23772.920,-50511.400,-6707.700,-25874.510,-23920.920,-88156.360,0.000
-23799.280,-24484.680,-23889.780,-50592.780,-6742.305,-26001.260,-24039.420,-88407.910,0.000
-23912.500,-24597.070,-24006.390,-50694.320,-6775.349,-26121.910,-24160.320,-88687.710,0.000
-24021.620,-24711.150,-24118.880,-50769.410,-6804.115,-26241.530,-24269.110,-88954.900,0.000
-24132.750,-24831.410,-24239.880,-50854.930,-6840.476,-26368.130,-24386.830,-89239.550,0.000
-24245.590,-24952.630,-24358.480,-50957.540,-6878.869,-26501.590,-24503.140,-89556.690,0.000
-24361.040,-25075.360,-24475.010,-51040.130,-6918.636,-26636.870,-24622.590,-89872.030,0.000
-24475.770,-25197.860,-24592.410,-51148.500,-6959.449,-26768.250,-24749.810,-90225.200,0.000
-24586.880,-25313.080,-24698.910,-51232.900,-6989.678,-26891.220,-24859.950,-90573.240,0.000
-24700.640,-25426.690,-24809.650,-51329.210,-7021.422,-27009.120,-24974.110,-90942.050,0.000
-24816.180,-25538.440,-24918.630,-51437.700,-7051.643,-27125.300,-25084.270,-91337.980,0.000
-24935.850,-25655.110,-25032.110,-51521.270,-7084.708,-27247.910,-25196.310,-91727.730,0.000
-25063.050,-25779.920,-25157.300,-51637.200,-7126.769,-27376.950,-25319.400,-92160.420,0.000
-25191.700,-25904.070,-25278.070,-51737.200,-7166.415,-27503.640,-25432.830,-92591.570,0.000
-25312.320,-26023.140,-25397.670,-51844.200,-7207.008,-27625.800,-25552.500,-93036.530,0.000
-25418.400,-26129.840,-25503.080,-51952.200,-7237.523,-27740.560,-25661.880,-93494.340,0.000
-25519.730,-26236.100,-25603.810,-52032.600,-7263.638,-27853.640,-25766.190,-93932.450,0.000
-25625.220,-26349.770,-25713.430,-52150.020,-7297.614,-27971.200,-25880.050,-94406.370,0.000
-25734.330,-26463.670,-25821.090,-52250.850,-7331.852,-28094.650,-25989.090,-94869.670,0.000
-25845.480,-26580.140,-25934.910,-52352.390,-7371.346,-28224.250,-26110.670,-95328.970,0.000
-25952.640,-26691.040,-26042.860,-52456.240,-7404.707,-28347.480,-26221.550,-95791.450,0.000
-26059.140,-26797.560,-26148.140,-52535.050,-7432.498,-28459.310,-26320.460,-96234.130,0.000
-26169.470,-26907.690,-26259.560,-52644.380,-7464.911,-28568.870,-26425.490,-96706.570,0.000
-26281.530,-27019.220,-26367.700,-52735.930,-7498.090,-28683.470,-26527.110,-97170.180,0.000
-26395.800,-27135.770,-26483.670,-52833.450,-7540.509,-28805.470,-26645.910,-97645.920,0.000
-26507.080,-27249.600,-26594.430,-52931.410,-7578.831,-28925.650,-26760.100,-98135.520,0.000
-26611.620,-27354.130,-26696.960,-53000.740,-7606.743,-29037.210,-26861.800,-98607.720,0.000
-26710.420,-27453.460,-26798.300,-53097.490,-7632.629,-29144.450,-26962.880,-99109.160,0.000
-26809.980,-27555.590,-26896.200,-53169.950,-7657.903,-29252.240,-27055.630,-99596.520,0.000
-26921.110,-27672.380,-27009.840,-53248.990,-7697.713,-29369.010,-27166.620,-100091.100,0.000
-27038.810,-27794.940,-27127.040,-53337.140,-7743.305,-29494.570,-27281.120,-100593.300,0.000
-27154.510,-27912.630,-27241.600,-53401.270,-7788.217,-29619.770,-27395.320,-101060.400,0.000
-27267.670,-28027.750,-27358.170,-53494.020,-7836.515,-29745.400,-27517.490,-101531.400,0.000
-27379.690,-28143.410,-27467.940,-53565.220,-7881.552,-29873.330,-27629.850,-101967.000,0.000
-27490.430,-28261.720,-27580.040,-53639.620,-7927.445,-29997.350,-27746.370,-102386.400,0.000
-27595.190,-28374.990,-27685.040,-53714.610,-7965.398,-30113.530,-27852.060,-102785.200,0.000
-27700.850,-28486.370,-27791.390,-53769.570,-8003.105,-30230.040,-27957.810,-103143.000,0.000
-27806.580,-28595.960,-27901.220,-53861.150,-8043.826,-30346.600,-28072.050,-103522.100,0.000
-27900.480,-28694.580,-27994.430,-53924.620,-8070.431,-30454.130,-28166.880,-103878.500,0.000
-27990.120,-28791.140,-28088.210,-53985.760,-8096.440,-30557.220,-28264.820,-104233.300,0.000
-28082.800,-28888.840,-28181.870,-54053.320,-8122.984,-30660.580,-28359.690,-104593.000,0.000
-28178.860,-28986.700,-28277.110,-54101.770,-8150.350,-30764.900,-28454.270,-104926.000,0.000
-28278.360,-29086.840,-28378.100,-54184.360,-8182.453,-30870.500,-28557.660,-105279.400,0.000
-28383.040,-29192.670,-28478.210,-54247.500,-8215.021,-30981.280,-28656.660,-105607.100,0.000
-28493.250,-29304.980,-28588.960,-54320.260,-8256.591,-31097.390,-28769.620,-105930.800,0.000
-28596.220,-29407.660,-28691.600,-54402.110,-8291.856,-31205.180,-28871.280,-106258.700,0.000
-28690.390,-29502.940,-28786.660,-54461.740,-8320.941,-31306.180,-28963.570,-106563.100,0.000
-28781.200,-29599.160,-28882.720,-54549.900,-8351.103,-31407.160,-29061.470,-106890.900,0.000
-28869.280,-29690.700,-28968.910,-54610.740,-8371.787,-31502.930,-29144.200,-107199.900,0.000
-28964.630,-29786.990,-29064.830,-54681.320,-8400.220,-31601.220,-29236.470,-107532.100,0.000
-29069.110,-29891.490,-29167.480,-54771.130,-8438.540,-31709.790,-29334.720,-107906.100,0.000
-29174.380,-29997.050,-29271.000,-54840.730,-8479.137,-31821.180,-29435.990,-108267.100,0.000
-29272.780,-30095.300,-29370.690,-54931.210,-8515.407,-31925.590,-29538.970,-108640.800,0.000
-29362.500,-30181.890,-29455.100,-54989.890,-8537.120,-32019.090,-29622.460,-108996.400,0.000
-29449.330,-30268.800,-29542.710,-55054.420,-8559.741,-32108.570,-29709.800,-109373.300,0.000
-29537.630,-30363.600,-29633.350,-55137.980,-8588.601,-32207.510,-29801.140,-109776.000,0.000
-29628.850,-30463.910,-29728.920,-55207.810,-8624.759,-32317.450,-29902.490,-110159.900,0.000
-29716.450,-30559.840,-29824.830,-55305.040,-8660.756,-32423.640,-30007.980,-110557.900,0.000
-29797.720,-30646.130,-29906.750,-55372.510,-8684.000,-32519.040,-30091.880,-110923.900,0.000
-29878.890,-30730.850,-29990.030,-55440.360,-8707.137,-32609.470,-30178.160,-111283.900,0.000
-29964.060,-30817.650,-30072.550,-55521.700,-8730.639,-32700.940,-30262.860,-111653.900,0.000
-30058.630,-30913.670,-30162.450,-55587.880,-8761.120,-32799.840,-30353.510,-112011.400,0.000
-30156.380,-31015.020,-30261.400,-55681.260,-8798.878,-32901.490,-30452.420,-112396.100,0.000
-30244.650,-31102.870,-30346.720,-55747.230,-8823.229,-32991.180,-30530.850,-112747.000,0.000
-30323.020,-31179.770,-30424.310,-55814.510,-8839.350,-33072.570,-30608.470,-113074.700,0.000
-30393.260,-31252.900,-30492.230,-55887.380,-8851.272,-33155.990,-30683.660,-113392.600,0.000
-30463.630,-31326.640,-30562.310,-55936.020,-8868.346,-33240.110,-30762.100,-113681.000,0.000
-30541.840,-31406.870,-30644.850,-56013.620,-8896.299,-33327.090,-30850.460,-113987.800,0.000
-30621.460,-31488.910,-30724.330,-56070.540,-8920.000,-33416.740,-30928.620,-114262.100,0.000
-30694.660,-31565.980,-30802.050,-56131.040,-8938.246,-33498.460,-31008.250,-114513.200,0.000
-30759.190,-31632.000,-30866.850,-56199.090,-8944.601,-33566.840,-31073.470,-114740.300,0.000
-30825.160,-31697.640,-30929.370,-56245.490,-8949.739,-33633.860,-31134.490,-114910.700,0.000
-30901.690,-31775.090,-31004.480,-56319.800,-8967.465,-33712.070,-31209.950,-115065.800,0.000
-30985.790,-31858.230,-31082.210,-56377.470,-8989.312,-33798.910,-31283.480,-115159.200,0.000
-31069.620,-31939.070,-31165.450,-56449.270,-9014.830,-33884.050,-31365.880,-115217.400,0.000
-31142.050,-32007.300,-31235.030,-56529.920,-9027.429,-33957.070,-31433.760,-115260.300,0.000
-31204.360,-32066.210,-31291.910,-56575.990,-9027.408,-34020.220,-31488.660,-115277.400,0.000
-31265.180,-32127.240,-31351.530,-56639.870,-9031.047,-34084.680,-31551.600,-115334.000,0.000
-31332.250,-32196.140,-31416.200,-56692.520,-9044.036,-34161.090,-31620.110,-115397.900,0.000
-31410.140,-32278.560,-31500.000,-56769.210,-9076.075,-34252.790,-31713.670,-115498.500,0.000
-31489.650,-32364.360,-31584.130,-56862.820,-9107.951,-34345.890,-31802.500,-115652.600,0.000
-31564.630,-32443.740,-31660.090,-56926.300,-9129.861,-34428.760,-31876.320,-115826.500,0.000
-31632.680,-32515.320,-31729.440,-56999.720,-9145.618,-34503.070,-31946.870,-116054.100,0.000
-31697.130,-32582.230,-31789.770,-57051.790,-9156.038,-34576.680,-32009.690,-116294.800,0.000
-31770.130,-32655.070,-31863.470,-57125.960,-9178.053,-34655.590,-32090.140,-116569.600,0.000
-31846.710,-32729.490,-31937.530,-57217.520,-9199.304,-34732.920,-32164.370,-116868.600,0.000
-31920.190,-32803.350,-32007.220,-57281.950,-9215.906,-34807.210,-32229.470,-117145.700,0.000
-31999.880,-32885.460,-32088.100,-57372.350,-9245.439,-34892.620,-32311.660,-117453.500,0.000
-32087.940,-32976.570,-32175.380,-57455.910,-9283.754,-34991.800,-32399.950,-117760.100,0.000
-32175.560,-33072.500,-32269.060,-57550.870,-9325.424,-35091.000,-32495.190,-118062.100,0.000
-32256.320,-33160.090,-32352.000,-57646.950,-9356.527,-35179.480,-32573.550,-118337.800,0.000
-32333.740,-33236.600,-32426.690,-57712.010,-9379.697,-35259.860,-32642.430,-118555.300,0.000
-32412.250,-33312.340,-32505.190,-57793.430,-9406.795,-35341.820,-32721.450,-118767.200,0.000
-32485.460,-33385.570,-32576.520,-57851.180,-9429.664,-35423.080,-32793.230,-118939.300,0.000
-32549.580,-33452.250,-32644.810,-57915.300,-9449.019,-35495.090,-32866.630,-119097.400,0.000
-32613.340,-33517.210,-32708.990,-57989.360,-9463.532,-35562.240,-32931.580,-119248.500,0.000
-32687.550,-33592.450,-32782.090,-58049.910,-9485.019,-35637.520,-33001.380,-119361.400,0.000
-32765.440,-33672.570,-32863.200,-58139.830,-9515.498,-35717.280,-33083.490,-119478.100,0.000
-32836.410,-33745.220,-32932.570,-58205.780,-9538.378,-35792.580,-33152.870,-119560.200,0.000
-32905.860,-33818.820,-33004.600,-58274.160,-9564.704,-35872.700,-33230.410,-119637.700,0.000
-32978.070,-33896.540,-33077.910,-58351.370,-9595.320,-35960.480,-33309.750,-119721.700,0.000
-33052.950,-33976.500,-33153.690,-58413.160,-9627.308,-36047.090,-33388.380,-119780.700,0.000
-33128.270,-34056.160,-33231.900,-58503.480,-9658.220,-36126.990,-33467.660,-119856.700,0.000
-33203.230,-34132.410,-33304.270,-58573.630,-9684.895,-36206.000,-33538.010,-119912.800,0.000
-33280.220,-34210.960,-33384.520,-58644.590,-9720.960,-36292.520,-33623.770,-119971.400,0.000
-33353.980,-34287.880,-33459.970,-58712.310,-9753.955,-36377.870,-33703.630,-120038.200,0.000
-33424.310,-34362.250,-33530.950,-58755.000,-9779.463,-36455.750,-33775.060,-120091.000,0.000
-33494.110,-34434.070,-33602.450,-58824.340,-9802.437,-36527.850,-33846.410,-120181.800,0.000
-33559.130,-34495.010,-33661.410,-58873.410,-9815.684,-36593.070,-33901.050,-120277.600,0.000
-33624.110,-34553.960,-33724.110,-58926.610,-9834.071,-36658.910,-33965.110,-120406.700,0.000
-33698.560,-34625.700,-33794.890,-58986.060,-9861.849,-36735.210,-34034.450,-120578.200,0.000
-33779.700,-34711.590,-33874.550,-59030.950,-9896.546,-36819.010,-34108.320,-120769.700,0.000
-33849.990,-34790.480,-33949.410,-59100.660,-9924.959,-36894.900,-34181.420,-121023.900,0.000
-33904.590,-34850.380,-34004.880,-59139.960,-9936.159,-36958.730,-34235.540,-121295.400,0.000
-33961.980,-34910.600,-34067.610,-59182.610,-9954.041,-37023.350,-34299.990,-121612.700,0.000
-34030.550,-34979.310,-34137.100,-59236.410,-9980.717,-37095.560,-34367.140,-121988.200,0.000
-34101.230,-35048.540,-34205.930,-59274.660,-10008.630,-37171.200,-34434.880,-122387.500,0.000
-34163.490,-35109.430,-34268.980,-59338.880,-10031.010,-37239.660,-34501.260,-122847.000,0.000
-34216.160,-35160.680,-34317.720,-59376.500,-10038.750,-37296.280,-34546.720,-123325.100,0.000
-34266.560,-35212.010,-34368.970,-59408.270,-10045.360,-37348.120,-34595.110,-123839.100,0.000
-34319.610,-35266.870,-34421.760,-59438.480,-10053.630,-37404.070,-34642.840,-124393.800,0.000
-34376.420,-35327.460,-34480.750,-59456.670,-10068.980,-37468.680,-34698.490,-124966.100,0.000
-34432.860,-35389.660,-34542.700,-59511.140,-10089.500,-37534.790,-34762.980,-125593.100,0.000
-34489.630,-35449.200,-34595.990,-59545.990,-10104.810,-37596.830,-34815.130,-126223.100,0.000
-34549.480,-35511.290,-34654.700,-59580.220,-10124.130,-37657.370,-34875.590,-126863.800,0.000
-34603.310,-35567.480,-34706.150,-59604.980,-10137.470,-37713.140,-34928.110,-127498.200,0.000
-34656.830,-35621.180,-34758.170,-59608.120,-10152.290,-37772.140,-34981.910,-128097.000,0.000
-34720.980,-35684.600,-34824.250,-59655.750,-10180.890,-37842.970,-35052.630,-128716.400,0.000
-34787.200,-35750.760,-34886.600,-59690.350,-10206.230,-37912.630,-35112.260,-129306.600,0.000
-34848.540,-35812.220,-34947.910,-59720.280,-10228.640,-37974.540,-35173.140,-129871.900,0.000
-34905.070,-35868.730,-35002.750,-59742.730,-10246.170,-38035.660,-35229.890,-130412.400,0.000
-34958.140,-35924.530,-35056.300,-59743.660,-10261.910,-38098.090,-35285.720,-130895.500,0.000
-35007.500,-35977.790,-35111.070,-59775.540,-10277.990,-38156.380,-35343.220,-131352.700,0.000
-35056.050,-36029.510,-35159.020,-59787.550,-10289.000,-38210.690,-35387.870,-131746.300,0.000
-35107.770,-36084.680,-35213.610,-59804.390,-10305.460,-38266.210,-35441.690,-132108.400,0.000
-35155.340,-36133.310,-35261.420,-59820.790,-10318.010,-38319.200,-35489.700,-132439.600,0.000
-35194.820,-36174.550,-35301.280,-59812.090,-10324.670,-38366.700,-35533.460,-132709.100,0.000
-35232.860,-36217.950,-35343.790,-59831.340,-10333.660,-38414.290,-35584.520,-132966.200,0.000
-35281.190,-36271.240,-35391.260,-59837.560,-10347.700,-38471.720,-35634.450,-133182.800,0.000
-35339.390,-36333.910,-35452.110,-59857.340,-10372.270,-38537.120,-35698.160,-133387.300,0.000
-35389.110,-36385.620,-35500.450,-59876.010,-10385.180,-38592.310,-35746.390,-133572.700,0.000
-35430.320,-36424.430,-35538.660,-59869.180,-10388.550,-38636.040,-35782.900,-133707.000,0.000
-35473.530,-36463.920,-35583.000,-59894.930,-10398.500,-38682.960,-35829.050,-133838.800,0.000
-35519.780,-36509.550,-35626.490,-59901.930,-10408.790,-38735.590,-35871.020,-133928.100,0.000
-35566.960,-36560.880,-35676.000,-59912.480,-10422.870,-38787.430,-35921.930,-134002.500,0.000
-35608.950,-36606.640,-35718.350,-59925.640,-10432.100,-38835.450,-35966.270,-134077.700,0.000
-35648.880,-36649.860,-35757.910,-59919.880,-10439.260,-38882.360,-36008.800,-134137.700,0.000
-35690.890,-36695.760,-35801.380,-59943.290,-10449.100,-38928.150,-36055.660,-134229.600,0.000
-35731.900,-36738.000,-35837.510,-59942.930,-10452.990,-38971.430,-36088.030,-134315.400,0.000
-35777.300,-36782.360,-35882.590,-59951.110,-10465.120,-39018.210,-36131.930,-134428.700,0.000
-35831.240,-36833.740,-35934.610,-59973.600,-10486.020,-39073.850,-36182.740,-134580.800,0.000
-35884.520,-36885.460,-35986.610,-59978.840,-10506.180,-39130.200,-36234.320,-134731.200,0.000
-35926.660,-36928.340,-36030.920,-60004.070,-10516.780,-39175.330,-36281.240,-134904.000,0.000
-35963.240,-36967.970,-36065.160,-60003.010,-10519.370,-39217.000,-36314.960,-135057.000,0.000
-36002.850,-37013.550,-36108.330,-60012.760,-10531.370,-39263.850,-36361.570,-135219.000,0.000
-36042.230,-37055.970,-36147.880,-60028.840,-10540.990,-39307.710,-36400.440,-135386.300,0.000
-36085.170,-37098.360,-36188.860,-60023.800,-10549.370,-39350.760,-36435.540,-135524.100,0.000
-36130.500,-37142.740,-36235.490,-60050.020,-10561.030,-39394.550,-36478.060,-135673.700,0.000
-36169.470,-37177.780,-36269.910,-60054.550,-10562.840,-39430.700,-36507.680,-135789.000,0.000
-36205.420,-37209.590,-36304.280,-60060.710,-10565.040,-39462.850,-36543.780,-135889.700,0.000
-36240.560,-37245.960,-36337.870,-60070.820,-10569.750,-39500.720,-36579.810,-135986.300,0.000
-36280.940,-37293.870,-36381.710,-60067.090,-10585.750,-39552.980,-36626.020,-136060.500,0.000
-36331.340,-37352.090,-36439.950,-60095.780,-10615.600,-39616.600,-36688.300,-136145.800,0.000
-36388.390,-37410.820,-36495.390,-60102.450,-10643.530,-39680.210,-36741.830,-136187.200,0.000
-36448.510,-37469.840,-36554.040,-60117.740,-10671.860,-39739.500,-36799.190,-136205.000,0.000
-36505.450,-37525.640,-36605.790,-60142.180,-10694.700,-39796.320,-36849.960,-136198.500,0.000
-36557.790,-37576.680,-36653.530,-60146.220,-10715.430,-39852.900,-36901.770,-136129.900,0.000
-36602.870,-37620.250,-36699.450,-60171.140,-10734.760,-39902.740,-36955.150,-136031.300,0.000
-36641.630,-37659.190,-36737.180,-60167.160,-10746.480,-39946.390,-36991.650,-135868.500,0.000
-36680.000,-37702.910,-36781.680,-60168.310,-10762.610,-39990.890,-37034.900,-135686.400,0.000
-36715.130,-37743.660,-36819.510,-60174.970,-10774.140,-40032.290,-37070.970,-135502.900,0.000
-36747.160,-37778.380,-36850.860,-60158.270,-10779.640,-40068.350,-37101.000,-135286.400,0.000
-36778.160,-37809.260,-36882.720,-60166.870,-10784.190,-40100.570,-37133.430,-135076.200,0.000
-36808.740,-37836.500,-36908.860,-60157.640,-10783.930,-40131.430,-37157.110,-134845.200,0.000
-36845.830,-37871.860,-36946.960,-60165.300,-10794.470,-40169.770,-37198.230,-134627.300,0.000
-36890.130,-37915.890,-36990.050,-60183.990,-10812.360,-40216.550,-37243.140,-134422.800,0.000
-36936.520,-37961.380,-37033.930,-60177.100,-10831.640,-40262.980,-37285.190,-134200.300,0.000
-36980.800,-38006.930,-37079.340,-60195.290,-10852.470,-40308.300,-37330.540,-134008.300,0.000
-37021.170,-38051.410,-37117.820,-60199.750,-10869.770,-40358.010,-37371.070,-133824.700,0.000
-37055.360,-38089.840,-37154.820,-60212.300,-10885.550,-40403.930,-37417.800,-133684.100,0.000
-37079.700,-38113.680,-37176.770,-60215.460,-10886.160,-40433.480,-37444.730,-133585.700,0.000
-37105.530,-38135.450,-37198.390,-60193.280,-10883.540,-40457.890,-37466.500,-133512.300,0.000
-37143.200,-38170.730,-37236.520,-60213.670,-10895.530,-40492.630,-37505.310,-133535.500,0.000
-37189.900,-38216.890,-37280.150,-60225.950,-10914.170,-40537.150,-37543.200,-133633.100,0.000
-37242.180,-38269.200,-37333.160,-60249.390,-10940.980,-40587.380,-37593.110,-133821.600,0.000
-37288.810,-38315.800,-37376.870,-60272.970,-10961.070,-40634.960,-37634.570,-134091.800,0.000
-37324.290,-38354.350,-37410.860,-60266.160,-10971.670,-40674.380,-37665.650,-134409.300,0.000
-37356.020,-38391.290,-37446.360,-60280.800,-10983.070,-40710.780,-37699.800,-134798.300,0.000
-37387.640,-38424.080,-37475.660,-60270.110,-10990.310,-40745.880,-37725.570,-135207.000,0.000
-37419.610,-38454.320,-37508.790,-60265.900,-10999.420,-40778.160,-37758.700,-135670.100,0.000
-37452.230,-38484.450,-37540.880,-60271.400,-11007.930,-40810.250,-37788.250,-136186.300,0.000
-37490.440,-38521.310,-37578.620,-60263.580,-11022.910,-40848.380,-37823.990,-136700.400,0.000
-37533.110,-38564.860,-37623.690,-60283.950,-11046.600,-40892.170,-37872.040,-137235.000,0.000
-37571.200,-38604.350,-37659.970,-60275.520,-11063.990,-40933.490,-37908.520,-137743.500,0.000
-37601.640,-38637.460,-37694.040,-60269.250,-11077.740,-40967.330,-37944.680,-138240.400,0.000
-37626.340,-38663.140,-37718.920,-60266.070,-11083.460,-40995.230,-37968.580,-138720.600,0.000
-37655.310,-38690.480,-37746.130,-60242.880,-11090.820,-41026.570,-37994.450,-139158.200,0.000
-37692.830,-38727.570,-37784.380,-60250.840,-11108.520,-41066.000,-38034.700,-139590.500,0.000
-37729.760,-38765.220,-37817.680,-60241.420,-11123.170,-41105.640,-38066.130,-139959.000,0.000
-37757.420,-38794.020,-37848.270,-60238.930,-11134.060,-41137.280,-38100.050,-140261.800,0.000
-37778.150,-38815.550,-37870.810,-60237.090,-11138.710,-41163.760,-38126.890,-140499.100,0.000
-37805.340,-38845.730,-37898.580,-60214.860,-11148.010,-41194.630,-38155.060,-140669.700,0.000
-37839.310,-38884.840,-37935.250,-60221.700,-11165.540,-41231.300,-38192.590,-140831.000,0.000
-37870.370,-38919.220,-37964.890,-60208.860,-11177.520,-41267.600,-38221.800,-140945.000,0.000
-37895.770,-38947.320,-37993.570,-60206.480,-11185.590,-41297.680,-38252.420,-141038.000,0.000
-37916.290,-38968.240,-38012.970,-60210.240,-11185.500,-41321.770,-38271.150,-141123.700,0.000
-37936.460,-38985.890,-38030.900,-60197.390,-11185.180,-41342.900,-38288.750,-141190.900,0.000
-37955.130,-39002.640,-38052.240,-60216.120,-11188.340,-41360.250,-38311.770,-141291.000,0.000
-37974.960,-39023.090,-38073.450,-60219.800,-11192.350,-41381.540,-38329.650,-141392.300,0.000
-38000.710,-39053.960,-38107.460,-60237.020,-11207.610,-41412.860,-38363.380,-141509.900,0.000
-38024.990,-39084.020,-38134.970,-60256.310,-11218.760,-41443.700,-38390.450,-141631.500,0.000
-38046.570,-39107.480,-38154.430,-60255.780,-11221.520,-41465.860,-38408.900,-141743.100,0.000
-38065.830,-39124.230,-38171.320,-60283.380,-11220.520,-41480.840,-38427.640,-141894.200,0.000
-38085.580,-39139.890,-38183.520,-60286.040,-11217.480,-41500.570,-38441.570,-142034.900,0.000
-38113.140,-39167.800,-38209.710,-60299.900,-11228.140,-41533.430,-38474.770,-142180.200,0.000
-38141.590,-39198.730,-38236.240,-60320.980,-11239.800,-41566.940,-38504.360,-142324.000,0.000
-38165.610,-39223.980,-38261.040,-60321.290,-11247.600,-41592.150,-38527.420,-142440.300,0.000
-38183.430,-39242.520,-38284.670,-60344.380,-11252.980,-41610.040,-38549.330,-142572.700,0.000
-38193.020,-39250.800,-38293.940,-60333.250,-11246.140,-41620.600,-38553.580,-142674.800,0.000
-38204.020,-39260.010,-38306.450,-60327.460,-11241.030,-41631.060,-38565.470,-142770.800,0.000
-38220.410,-39275.190,-38319.480,-60332.790,-11238.410,-41645.910,-38577.340,-142868.200,0.000
-38236.780,-39292.000,-38332.070,-60320.190,-11237.420,-41662.500,-38591.230,-142940.000,0.000
-38250.400,-39309.220,-38346.800,-60336.260,-11240.570,-41682.390,-38614.700,-143033.800,0.000
-38264.960,-39327.800,-38359.140,-60333.580,-11243.370,-41705.730,-38632.510,-143119.600,0.000
-38284.520,-39349.470,-38381.690,-60340.360,-11252.180,-41726.990,-38656.520,-143213.400,0.000
-38305.460,-39370.600,-38404.560,-60347.520,-11259.890,-41746.700,-38673.380,-143303.500,0.000
-38326.680,-39392.430,-38430.340,-60337.310,-11268.730,-41769.050,-38691.760,-143373.300,0.000
-38348.550,-39415.270,-38459.330,-60366.970,-11280.260,-41792.350,-38717.010,-143484.100,0.000
-38371.130,-39435.760,-38478.770,-60377.310,-11286.720,-41816.090,-38733.480,-143594.600,0.000
-38392.420,-39453.320,-38496.680,-60384.020,-11293.280,-41837.740,-38756.540,-143703.000,0.000
-38407.040,-39465.970,-38505.090,-60382.510,-11292.170,-41854.200,-38770.630,-143802.900,0.000
-38419.430,-39479.120,-38513.510,-60363.880,-11289.490,-41868.640,-38783.750,-143890.500,0.000
-38431.290,-39492.450,-38525.460,-60379.640,-11289.380,-41880.890,-38801.450,-144014.400,0.000
-38446.610,-39508.030,-38536.350,-60372.870,-11289.380,-41895.390,-38810.930,-144123.900,0.000
-38475.460,-39537.570,-38567.610,-60382.200,-11306.400,-41921.880,-38838.500,-144241.500,0.000
-38508.540,-39571.090,-38602.800,-60403.980,-11329.060,-41956.160,-38868.710,-144369.900,0.000
-38533.810,-39594.640,-38628.830,-60404.970,-11345.270,-41985.040,-38894.860,-144479.500,0.000
-38548.100,-39605.500,-38642.330,-60424.670,-11350.520,-42001.760,-38915.010,-144600.600,0.000
-38555.590,-39611.190,-38642.080,-60408.550,-11343.260,-42012.270,-38918.530,-144683.400,0.000
-38566.800,-39625.130,-38653.220,-60404.670,-11343.760,-42025.980,-38933.820,-144762.400,0.000
-38581.550,-39643.560,-38668.370,-60416.580,-11348.340,-42043.700,-38949.490,-144850.300,0.000
-38598.630,-39663.300,-38686.960,-60409.850,-11355.930,-42064.290,-38968.450,-144920.900,0.000
-38619.050,-39685.180,-38711.930,-60428.340,-11369.260,-42085.960,-38994.140,-145016.000,0.000
-38639.840,-39705.970,-38732.360,-60422.520,-11378.910,-42105.160,-39007.600,-145098.300,0.000
-38658.040,-39724.920,-38755.380,-60429.610,-11389.030,-42121.030,-39026.910,-145194.200,0.000
-38673.180,-39739.640,-38770.680,-60445.890,-11393.770,-42135.860,-39041.200,-145306.500,0.000
-38691.170,-39756.930,-38785.910,-60440.900,-11399.110,-42154.380,-39057.510,-145407.000,0.000
-38705.710,-39773.420,-38800.960,-60455.480,-11405.270,-42171.610,-39078.060,-145526.000,0.000
-38708.430,-39778.010,-38800.690,-60440.020,-11400.610,-42180.100,-39083.130,-145618.900,0.000
-38710.590,-39780.870,-38803.880,-60439.690,-11398.670,-42186.220,-39094.230,-145714.900,0.000
-38722.830,-39792.500,-38812.280,-60454.450,-11401.200,-42198.890,-39103.590,-145818.100,0.000
-38747.330,-39817.000,-38833.750,-60455.840,-11413.830,-42222.360,-39121.400,-145906.400,0.000
-38777.540,-39847.620,-38867.130,-60485.970,-11435.570,-42251.880,-39152.890,-146015.600,0.000
-38805.410,-39873.930,-38895.140,-60488.730,-11451.670,-42278.320,-39174.330,-146095.200,0.000
-38823.310,-39893.300,-38919.870,-60496.910,-11462.700,-42294.710,-39193.860,-146164.500,0.000
-38826.850,-39901.840,-38927.760,-60506.220,-11461.640,-42301.750,-39199.440,-146229.000,0.000
-38832.450,-39912.370,-38934.890,-60498.190,-11464.870,-42316.180,-39213.990,-146283.000,0.000
-38846.800,-39931.220,-38951.340,-60519.110,-11480.440,-42342.050,-39246.150,-146370.100,0.000
-38862.070,-39948.540,-38962.250,-60510.080,-11491.270,-42365.140,-39264.340,-146437.200,0.000
-38878.270,-39963.430,-38978.380,-60512.930,-11501.390,-42379.500,-39281.020,-146512.000,0.000
-38892.580,-39973.240,-38990.210,-60525.500,-11505.230,-42387.330,-39286.390,-146599.200,0.000
-38905.640,-39981.810,-39001.490,-60510.600,-11507.010,-42393.970,-39288.720,-146668.300,0.000
-38919.020,-39993.500,-39017.090,-60511.710,-11511.880,-42402.130,-39296.570,-146754.900,0.000
-38932.040,-40006.810,-39028.670,-60487.240,-11515.270,-42414.530,-39301.030,-146824.100,0.000
-38944.250,-40022.980,-39046.240,-60482.810,-11526.540,-42432.760,-39323.010,-146908.700,0.000
-38950.900,-40034.410,-39055.430,-60489.380,-11535.130,-42448.470,-39339.630,-147000.100,0.000
-38956.480,-40040.960,-39060.480,-60467.590,-11540.220,-42457.610,-39350.090,-147057.800,0.000
-38967.150,-40048.710,-39070.050,-60464.640,-11546.060,-42463.200,-39361.940,-147122.200,0.000
-38980.580,-40056.750,-39075.910,-60438.630,-11546.820,-42466.990,-39361.130,-147163.900,0.000
-38994.120,-40066.780,-39089.390,-60429.430,-11553.580,-42474.490,-39372.510,-147213.600,0.000
-39008.820,-40080.570,-39104.230,-60433.070,-11564.730,-42492.640,-39390.250,-147274.900,0.000
-39030.800,-40104.310,-39126.340,-60420.890,-11582.180,-42520.890,-39415.300,-147327.900,0.000
-39049.090,-40128.420,-39147.910,-60429.280,-11596.910,-42545.000,-39439.550,-147404.300,0.000
-39050.830,-40135.840,-39148.410,-60398.890,-11593.870,-42554.720,-39442.340,-147452.300,0.000
-39051.180,-40139.000,-39150.660,-60377.700,-11593.750,-42560.930,-39452.380,-147510.400,0.000
-39058.820,-40147.200,-39154.910,-60368.450,-11597.990,-42570.810,-39459.770,-147589.100,0.000
-39068.510,-40157.020,-39160.920,-60335.570,-11603.840,-42581.440,-39466.410,-147653.800,0.000
-39079.640,-40167.710,-39173.340,-60328.080,-11614.770,-42593.790,-39482.400,-147738.900,0.000
-39092.610,-40178.060,-39183.670,-60298.930,-11623.470,-42606.320,-39491.230,-147796.100,0.000
-39104.930,-40187.800,-39198.010,-60276.920,-11632.860,-42615.150,-39503.110,-147838.500,0.000
-39112.570,-40193.280,-39204.840,-60250.930,-11634.570,-42619.640,-39503.320,-147863.200,0.000
-39117.290,-40196.910,-39209.560,-60196.690,-11633.500,-42622.370,-39502.930,-147852.500,0.000
-39119.380,-40199.640,-39216.100,-60171.790,-11635.750,-42625.090,-39511.510,-147863.500,0.000
-39119.200,-40200.080,-39215.070,-60128.070,-11634.170,-42627.890,-39511.500,-147867.900,0.000
-39121.980,-40203.540,-39219.230,-60096.150,-11637.120,-42632.520,-39519.250,-147890.400,0.000
-39130.010,-40211.120,-39223.610,-60070.610,-11642.180,-42641.520,-39524.050,-147924.300,0.000
-39141.010,-40221.960,-39230.780,-60022.470,-11649.810,-42651.790,-39530.090,-147929.800,0.000
-39146.880,-40228.730,-39236.200,-59993.880,-11654.460,-42654.820,-39536.300,-147940.400,0.000
-39149.700,-40229.820,-39233.280,-59935.440,-11650.760,-42654.040,-39530.520,-147925.800,0.000
-39157.740,-40233.640,-39240.950,-59888.590,-11654.600,-42658.150,-39538.980,-147923.100,0.000
-39165.570,-40237.720,-39247.840,-59849.880,-11658.540,-42664.610,-39545.700,-147931.000,0.000
-39170.510,-40241.490,-39253.000,-59791.690,-11660.590,-42669.150,-39549.730,-147913.600,0.000
-39173.340,-40245.270,-39258.330,-59762.270,-11663.430,-42670.360,-39554.660,-147908.400,0.000
-39175.920,-40251.070,-39259.480,-59712.820,-11665.600,-42674.100,-39552.130,-147886.200,0.000
-39180.800,-40261.850,-39270.270,-59675.860,-11677.210,-42684.260,-39565.180,-147879.500,0.000
-39181.690,-40266.640,-39273.800,-59640.050,-11682.210,-42688.980,-39568.830,-147888.300,0.000
-39181.530,-40267.230,-39273.820,-59584.780,-11681.680,-42686.790,-39565.180,-147894.400,0.000
-39187.470,-40273.920,-39282.250,-59567.600,-11690.530,-42692.390,-39574.260,-147944.200,0.000
-39197.610,-40285.800,-39289.710,-59534.090,-11703.010,-42707.730,-39583.240,-147989.600,0.000
-39202.970,-40291.750,-39295.170,-59503.930,-11711.240,-42714.370,-39591.460,-148037.300,0.000
-39196.280,-40281.290,-39283.810,-59465.680,-11701.120,-42702.460,-39577.410,-148088.300,0.000
-39187.070,-40268.710,-39271.710,-59407.480,-11687.570,-42687.050,-39561.840,-148141.400,0.000
-39181.980,-40263.800,-39270.510,-59387.740,-11683.610,-42679.460,-39560.660,-148241.900,0.000
-39180.550,-40264.010,-39269.690,-59351.400,-11683.160,-42680.010,-39558.710,-148332.700,0.000
-39179.850,-40267.930,-39274.210,-59320.630,-11689.180,-42683.630,-39567.660,-148420.100,0.000
-39166.100,-40258.890,-39263.200,-59278.070,-11683.010,-42676.730,-39559.600,-148492.800,0.000
-39140.770,-40235.280,-39241.770,-59207.370,-11665.720,-42658.330,-39538.710,-148534.600,0.000
-39124.090,-40216.910,-39230.890,-59174.360,-11655.700,-42643.990,-39526.290,-148600.700,0.000
-39126.930,-40215.440,-39230.940,-59126.540,-11655.360,-42642.410,-39516.940,-148645.100,0.000
-39140.440,-40226.830,-39244.080,-59087.750,-11666.570,-42647.820,-39523.530,-148674.500,0.000
-39149.720,-40236.070,-39249.890,-59047.850,-11674.590,-42652.560,-39525.200,-148676.700,0.000
-39152.360,-40239.310,-39250.510,-58984.060,-11679.130,-42655.840,-39526.510,-148625.400,0.000
-39147.930,-40236.120,-39249.150,-58945.790,-11681.620,-42655.250,-39530.640,-148566.900,0.000
-39137.300,-40225.410,-39236.040,-58878.860,-11674.450,-42647.990,-39519.660,-148463.800,0.000
-39129.120,-40217.040,-39227.470,-58819.650,-11671.050,-42640.430,-39516.350,-148346.600,0.000
-39122.670,-40210.990,-39217.450,-58765.550,-11668.300,-42635.500,-39510.300,-148230.400,0.000
-39114.570,-40203.960,-39208.490,-58692.980,-11666.700,-42630.640,-39505.950,-148103.600,0.000
-39107.030,-40197.740,-39204.940,-58649.630,-11669.150,-42625.990,-39507.520,-148008.500,0.000
-39100.630,-40190.560,-39197.170,-58579.700,-11665.290,-42618.150,-39494.260,-147904.800,0.000
-39093.670,-40182.100,-39193.100,-58514.900,-11660.700,-42605.620,-39484.500,-147821.700,0.000
-39085.770,-40174.660,-39186.090,-58452.230,-11657.400,-42599.040,-39478.280,-147759.900,0.000
-39080.710,-40172.820,-39182.990,-58373.200,-11660.940,-42602.290,-39481.960,-147696.900,0.000
-39073.070,-40167.730,-39179.000,-58322.010,-11662.440,-42599.010,-39482.760,-147675.500,0.000
-39059.000,-40153.280,-39161.460,-58241.140,-11650.800,-42583.430,-39462.660,-147657.300,0.000
-39046.400,-40140.710,-39149.300,-58169.270,-11642.810,-42567.730,-39450.990,-147670.700,0.000
-39036.200,-40129.950,-39136.570,-58104.040,-11635.730,-42554.240,-39435.500,-147713.700,0.000
-39026.890,-40117.970,-39124.800,-58024.320,-11629.350,-42539.160,-39419.110,-147759.500,0.000
-39014.670,-40103.090,-39113.550,-57973.190,-11623.670,-42523.570,-39408.690,-147841.900,0.000
-38999.890,-40087.410,-39096.940,-57893.750,-11613.840,-42511.800,-39393.810,-147920.900,0.000
-38993.110,-40080.330,-39093.410,-57829.520,-11612.800,-42505.960,-39392.500,-148028.300,0.000
-38994.460,-40077.380,-39091.060,-57773.690,-11611.880,-42500.690,-39384.140,-148150.400,0.000
-38995.900,-40074.500,-39086.250,-57693.770,-11607.780,-42491.310,-39371.360,-148242.600,0.000
-38987.830,-40066.030,-39075.970,-57636.180,-11599.880,-42474.630,-39357.770,-148347.400,0.000
-38969.160,-40046.520,-39052.390,-57550.920,-11583.540,-42452.060,-39329.700,-148437.500,0.000
-38947.590,-40024.410,-39033.620,-57473.750,-11572.930,-42431.470,-39312.990,-148537.200,0.000
-38927.810,-40005.890,-39016.890,-57399.980,-11566.660,-42418.210,-39300.050,-148644.000,0.000
-38914.340,-39994.580,-39008.170,-57313.240,-11565.840,-42409.920,-39292.650,-148742.600,0.000
-38900.190,-39981.900,-39000.460,-57254.810,-11562.720,-42396.450,-39283.910,-148866.500,0.000
-38881.320,-39963.450,-38981.500,-57165.000,-11549.520,-42378.090,-39260.460,-148965.800,0.000
-38864.270,-39949.070,-38969.030,-57088.770,-11541.840,-42362.400,-39249.140,-149072.300,0.000
-38845.370,-39933.480,-38950.890,-57017.340,-11530.610,-42345.390,-39232.060,-149182.600,0.000
-38828.320,-39918.550,-38932.670,-56922.010,-11519.820,-42328.530,-39214.410,-149261.700,0.000
-38822.370,-39912.640,-38925.520,-56854.260,-11521.240,-42321.140,-39209.430,-149343.500,0.000
-38820.650,-39906.760,-38916.280,-56763.410,-11522.920,-42317.280,-39199.540,-149388.300,0.000
-38810.800,-39891.570,-38905.490,-56685.660,-11519.370,-42302.840,-39189.570,-149424.300,0.000
-38792.290,-39869.820,-38885.200,-56609.590,-11505.280,-42279.620,-39164.410,-149447.700,0.000
-38768.390,-39846.840,-38861.240,-56506.550,-11487.490,-42253.220,-39135.550,-149433.000,0.000
-38739.860,-39821.150,-38836.300,-56428.490,-11470.620,-42224.970,-39111.730,-149427.200,0.000
-38719.800,-39802.990,-38815.140,-56333.990,-11459.850,-42206.580,-39089.640,-149397.800,0.000
-38709.370,-39796.430,-38808.640,-56256.550,-11461.750,-42197.430,-39084.910,-149363.500,0.000
-38698.340,-39787.930,-38796.790,-56178.710,-11460.730,-42186.950,-39073.470,-149317.600,0.000
-38690.940,-39779.140,-38786.110,-56080.830,-11460.520,-42175.910,-39062.550,-149244.100,0.000
-38681.930,-39767.520,-38775.610,-56011.620,-11458.390,-42161.210,-39053.200,-149180.000,0.000
-38666.930,-39748.680,-38754.650,-55913.220,-11446.620,-42143.450,-39031.230,-149076.900,0.000
-38654.450,-39732.060,-38742.390,-55825.490,-11442.090,-42129.010,-39021.090,-148965.700,0.000
-38645.420,-39717.510,-38731.150,-55746.530,-11440.250,-42116.840,-39007.430,-148857.000,0.000
-38638.930,-39706.000,-38722.580,-55657.960,-11441.120,-42106.560,-38996.560,-148736.300,0.000
-38628.180,-39693.910,-38713.700,-55601.870,-11441.770,-42094.620,-38990.590,-148636.700,0.000
-38609.750,-39676.780,-38694.440,-55515.100,-11434.090,-42079.450,-38972.440,-148511.800,0.000
-38593.190,-39664.280,-38682.420,-55439.060,-11432.010,-42066.530,-38964.450,-148394.700,0.000
-38582.440,-39656.430,-38670.980,-55371.420,-11431.760,-42057.130,-38953.800,-148286.800,0.000
-38578.530,-39651.960,-38665.880,-55296.530,-11437.270,-42051.190,-38948.230,-148170.700,0.000
-38575.590,-39648.610,-38665.560,-55262.140,-11446.240,-42043.150,-38947.300,-148085.500,0.000
-38567.000,-39640.930,-38654.920,-55199.830,-11445.100,-42028.770,-38929.660,-147977.200,0.000
-38556.740,-39629.900,-38646.710,-55144.710,-11443.890,-42012.410,-38917.160,-147871.000,0.000
-38545.500,-39612.980,-38633.000,-55092.670,-11439.370,-41996.020,-38899.350,-147770.300,0.000
-38532.690,-39595.260,-38619.050,-55027.820,-11436.280,-41981.000,-38885.520,-147658.700,0.000
-38516.340,-39579.840,-38606.700,-55006.590,-11436.820,-41966.860,-38879.770,-147580.300,0.000
-38496.550,-39562.520,-38585.280,-54965.950,-11431.100,-41950.600,-38861.710,-147485.000,0.000
-38478.420,-39545.700,-38568.590,-54932.240,-11426.860,-41932.010,-38847.700,-147390.000,0.000
-38461.820,-39528.660,-38550.660,-54897.890,-11420.340,-41914.030,-38827.370,-147291.400,0.000
-38447.120,-39514.250,-38537.330,-54854.230,-11417.000,-41899.060,-38811.840,-147178.300,0.000
-38431.870,-39502.310,-38527.910,-54860.480,-11417.730,-41883.600,-38804.600,-147104.500,0.000
-38416.250,-39491.340,-38512.950,-54855.160,-11415.980,-41869.440,-38790.710,-147026.900,0.000
-38403.630,-39482.380,-38503.900,-54863.510,-11419.420,-41858.110,-38786.460,-146960.300,0.000
-38388.510,-39466.940,-38486.240,-54866.510,-11415.300,-41841.580,-38769.900,-146890.800,0.000
-38372.650,-39448.770,-38467.330,-54852.970,-11408.550,-41821.470,-38751.910,-146810.900,0.000
-38358.770,-39431.910,-38454.640,-54887.920,-11407.890,-41803.390,-38743.920,-146782.100,0.000
-38345.460,-39414.920,-38439.530,-54907.270,-11407.380,-41788.590,-38729.560,-146754.300,0.000
-38331.590,-39401.770,-38431.170,-54938.170,-11412.090,-41776.530,-38724.050,-146738.700,0.000
-38313.130,-39388.500,-38415.930,-54969.830,-11411.680,-41762.770,-38710.130,-146727.200,0.000
-38294.000,-39375.450,-38399.450,-54984.840,-11408.950,-41745.570,-38694.320,-146708.800,0.000
-38275.510,-39358.510,-38383.750,-55032.480,-11404.860,-41723.360,-38679.110,-146730.800,0.000
-38256.730,-39334.240,-38358.690,-55049.460,-11393.320,-41697.940,-38651.470,-146739.600,0.000
-38238.790,-39310.750,-38338.160,-55077.680,-11386.080,-41673.360,-38635.190,-146756.100,0.000
-38217.380,-39287.180,-38313.500,-55111.050,-11376.170,-41648.930,-38614.450,-146778.500,0.000
-38197.200,-39267.770,-38293.500,-55123.040,-11369.800,-41629.280,-38597.460,-146795.200,0.000
-38183.300,-39255.440,-38284.780,-55160.470,-11373.950,-41617.330,-38591.680,-146852.900,0.000
-38168.730,-39241.050,-38271.960,-55168.290,-11375.810,-41603.650,-38576.140,-146897.300,0.000
-38146.520,-39219.620,-38256.650,-55192.230,-11373.910,-41580.090,-38560.840,-146950.500,0.000
-38121.960,-39195.010,-38234.020,-55226.630,-11365.910,-41553.230,-38535.700,-147011.100,0.000
-38106.380,-39177.710,-38218.130,-55238.130,-11363.600,-41532.610,-38516.820,-147058.200,0.000
-38094.590,-39163.170,-38205.690,-55262.000,-11364.120,-41515.570,-38503.780,-147128.900,0.000
-38078.500,-39142.960,-38181.120,-55247.980,-11353.960,-41495.140,-38475.100,-147174.500,0.000
-38057.500,-39118.950,-38156.520,-55252.950,-11342.750,-41467.020,-38451.470,-147229.700,0.000
-38031.310,-39091.410,-38125.540,-55271.070,-11328.940,-41435.910,-38422.830,-147296.900,0.000
-38007.080,-39067.960,-38098.250,-55262.640,-11320.250,-41411.660,-38399.770,-147353.800,0.000
-37984.700,-39047.520,-38077.770,-55261.860,-11317.060,-41392.030,-38385.390,-147436.600,0.000
-37959.650,-39022.930,-38053.660,-55225.860,-11309.200,-41370.820,-38362.580,-147499.600,0.000
-37932.280,-38995.950,-38034.380,-55213.780,-11302.480,-41344.790,-38345.410,-147577.200,0.000
-37901.450,-38964.700,-38006.540,-55213.610,-11288.290,-41312.200,-38314.090,-147662.700,0.000
-37874.010,-38935.740,-37978.480,-55183.970,-11274.490,-41281.170,-38282.370,-147721.400,0.000
-37852.740,-38912.260,-37956.540,-55164.720,-11267.730,-41257.460,-38263.550,-147787.700,0.000
-37835.780,-38892.560,-37933.820,-55116.300,-11261.710,-41239.020,-38243.440,-147793.100,0.000
-37823.170,-38878.360,-37921.110,-55094.820,-11262.790,-41222.200,-38234.420,-147748.800,0.000
-37808.670,-38862.590,-37904.050,-55086.870,-11260.760,-41203.860,-38216.170,-147721.600,0.000
-37790.230,-38845.420,-37884.930,-55050.620,-11257.120,-41184.060,-38194.600,-147690.500,0.000
-37765.190,-38822.350,-37862.880,-55022.890,-11250.110,-41156.020,-38169.680,-147594.100,0.000
-37737.960,-38793.140,-37833.870,-54966.020,-11236.790,-41121.980,-38132.020,-147430.300,0.000
-37718.070,-38771.190,-37817.070,-54936.550,-11234.690,-41096.700,-38113.120,-147335.100,0.000
-37697.610,-38749.180,-37796.170,-54914.380,-11231.340,-41076.860,-38093.220,-147320.000,0.000
-37670.780,-38720.720,-37769.200,-54859.580,-11221.600,-41051.950,-38068.230,-147292.800,0.000
-37639.990,-38690.470,-37740.510,-54818.030,-11210.080,-41021.840,-38043.040,-147227.400,0.000
-37611.380,-38663.570,-37708.320,-54751.070,-11197.270,-40992.420,-38010.630,-147120.800,0.000
-37591.550,-38646.410,-37690.650,-54710.320,-11197.610,-40971.100,-37997.340,-147031.700,0.000
-37575.410,-38631.400,-37675.460,-54681.330,-11200.920,-40955.440,-37985.110,-146942.900,0.000
-37558.340,-38613.780,-37660.660,-54629.330,-11201.400,-40937.290,-37968.430,-146842.000,0.000
-37534.830,-38589.680,-37641.580,-54589.600,-11195.640,-40910.180,-37945.000,-146777.000,0.000
-37503.600,-38555.660,-37608.920,-54513.690,-11178.720,-40874.360,-37905.710,-146698.100,0.000
-37474.380,-38522.390,-37581.220,-54458.100,-11166.710,-40838.890,-37877.800,-146597.200,0.000
-37450.000,-38494.370,-37552.700,-54414.450,-11156.720,-40810.000,-37849.460,-146467.600,0.000
-37430.540,-38473.330,-37528.170,-54352.960,-11151.080,-40788.310,-37827.460,-146328.300,0.000
-37411.130,-38452.570,-37505.730,-54310.460,-11146.980,-40765.800,-37810.720,-146224.700,0.000
-37385.640,-38423.970,-37473.250,-54231.940,-11133.940,-40736.160,-37779.710,-146107.200,0.000
-37357.780,-38395.160,-37445.570,-54168.750,-11124.610,-40705.790,-37755.620,-145986.800,0.000
-37331.180,-38369.770,-37418.050,-54117.180,-11117.000,-40679.750,-37728.570,-145847.800,0.000
-37308.800,-38349.600,-37397.480,-54054.310,-11114.130,-40657.120,-37706.520,-145692.700,0.000
-37286.030,-38330.790,-37381.370,-54018.300,-11114.420,-40634.710,-37689.640,-145570.900,0.000
-37259.490,-38309.030,-37357.250,-53951.220,-11108.850,-40611.100,-37662.180,-145440.600,0.000
-37229.900,-38284.420,-37332.950,-53894.190,-11102.430,-40582.450,-37639.590,-145332.500,0.000
-37194.930,-38252.430,-37298.000,-53838.160,-11087.990,-40546.710,-37605.550,-145245.200,0.000
-37162.510,-38219.390,-37264.520,-53768.190,-11075.570,-40512.450,-37573.710,-145138.100,0.000
-37136.580,-38189.150,-37236.570,-53730.120,-11069.250,-40483.560,-37550.410,-145018.600,0.000
-37115.000,-38161.550,-37206.520,-53669.440,-11060.720,-40458.330,-37520.940,-144876.500,0.000
-37098.710,-38140.370,-37188.840,-53632.330,-11058.840,-40435.960,-37503.600,-144767.100,0.000
-37081.540,-38117.590,-37168.830,-53610.450,-11054.300,-40410.860,-37478.840,-144665.600,0.000
-37058.560,-38089.060,-37144.410,-53583.700,-11045.820,-40379.240,-37450.140,-144551.900,0.000
-37030.700,-38060.460,-37120.240,-53598.420,-11039.170,-40347.240,-37426.410,-144488.800,0.000
-37000.340,-38037.010,-37093.640,-53594.290,-11033.640,-40322.030,-37399.030,-144429.800,0.000
-36967.380,-38015.410,-37072.210,-53596.180,-11032.830,-40298.790,-37380.620,-144355.600,0.000
-36929.960,-37985.380,-37041.190,-53583.980,-11024.370,-40269.600,-37350.570,-144258.300,0.000
-36893.370,-37951.120,-37009.030,-53549.930,-11013.880,-40237.840,-37321.110,-144139.700,0.000
-36857.770,-37914.790,-36978.470,-53551.800,-11003.340,-40203.660,-37296.650,-144044.300,0.000
-36822.660,-37875.670,-36941.160,-53534.170,-10985.760,-40162.840,-37259.920,-143947.500,0.000
-36796.690,-37845.750,-36915.410,-53533.410,-10977.640,-40127.410,-37234.630,-143850.800,0.000
-36779.600,-37825.570,-36893.960,-53530.350,-10976.150,-40107.310,-37209.460,-143749.100,0.000
-36763.240,-37807.740,-36874.900,-53504.210,-10975.960,-40089.510,-37186.130,-143628.200,0.000
-36738.520,-37783.800,-36851.240,-53500.620,-10970.210,-40061.080,-37160.570,-143505.800,0.000
-36703.690,-37749.480,-36813.090,-53453.810,-10952.310,-40024.230,-37118.060,-143369.500,0.000
-36669.770,-37715.130,-36780.800,-53403.690,-10939.290,-39987.480,-37085.590,-143240.600,0.000
-36643.000,-37685.640,-36752.590,-53349.410,-10931.670,-39956.140,-37055.410,-143118.800,0.000
-36619.140,-37658.920,-36729.670,-53279.720,-10928.530,-39927.850,-37031.160,-142983.900,0.000
-36592.860,-37632.640,-36707.140,-53238.640,-10926.580,-39900.300,-37009.160,-142849.600,0.000
-36565.940,-37606.650,-36677.600,-53158.970,-10920.540,-39875.400,-36976.000,-142704.000,0.000
-36538.600,-37580.490,-36651.860,-53075.050,-10916.660,-39849.570,-36951.480,-142558.200,0.000
-36502.960,-37545.460,-36614.040,-52973.340,-10902.200,-39814.670,-36915.340,-142397.000,0.000
-36461.510,-37504.200,-36570.930,-52843.990,-10881.670,-39772.130,-36874.590,-142231.300,0.000
-36421.310,-37463.980,-36531.890,-52748.680,-10863.380,-39728.480,-36837.010,-142100.000,0.000
-36384.890,-37427.020,-36493.410,-52631.550,-10845.300,-39688.070,-36792.810,-141964.400,0.000
-36354.940,-37397.930,-36468.050,-52526.330,-10838.980,-39655.280,-36765.500,-141834.000,0.000
-36327.550,-37371.030,-36441.180,-52413.270,-10834.350,-39627.060,-36737.020,-141691.000,0.000
-36296.590,-37339.180,-36410.020,-52272.410,-10824.330,-39592.640,-36702.670,-141532.000,0.000
-36262.390,-37303.720,-36376.860,-52160.210,-10810.730,-39551.790,-36663.880,-141403.700,0.000
-36232.020,-37272.040,-36342.140,-52025.070,-10797.680,-39516.740,-36620.020,-141276.000,0.000
-36203.020,-37243.360,-36314.400,-51898.910,-10791.220,-39487.270,-36591.810,-141159.200,0.000
-36165.230,-37207.340,-36276.070,-51762.920,-10776.230,-39454.340,-36555.840,-141026.600,0.000
-36128.060,-37173.530,-36241.320,-51622.120,-10763.110,-39422.050,-36522.930,-140880.500,0.000
-36099.760,-37148.560,-36218.840,-51544.880,-10761.010,-39394.920,-36501.210,-140785.600,0.000
-36069.390,-37119.330,-36189.460,-51452.690,-10754.370,-39363.950,-36469.520,-140692.600,0.000
-36031.290,-37082.790,-36156.790,-51362.680,-10744.340,-39324.230,-36440.190,-140594.700,0.000
-35992.590,-37047.370,-36119.370,-51264.480,-10732.420,-39286.890,-36405.700,-140501.400,0.000
-35958.680,-37017.570,-36088.100,-51150.660,-10725.880,-39256.900,-36378.290,-140392.100,0.000
-35923.930,-36984.530,-36058.110,-51071.040,-10719.260,-39224.450,-36353.440,-140273.700,0.000
-35891.130,-36950.550,-36025.150,-50970.610,-10710.130,-39192.350,-36321.400,-140139.100,0.000
-35865.360,-36925.040,-36005.780,-50899.160,-10711.940,-39166.640,-36305.590,-140024.800,0.000
-35836.770,-36896.590,-35979.770,-50841.820,-10707.790,-39136.500,-36277.650,-139925.800,0.000
-35808.180,-36867.210,-35952.460,-50779.860,-10701.310,-39103.500,-36246.170,-139797.200,0.000
-35788.200,-36846.890,-35933.640,-50754.590,-10704.400,-39080.640,-36227.300,-139639.800,0.000
-35770.700,-36827.800,-35910.080,-50676.690,-10704.670,-39060.340,-36200.630,-139458.200,0.000
-35743.390,-36798.850,-35881.220,-50560.150,-10696.590,-39026.290,-36167.700,-139268.400,0.000
-35701.470,-36755.660,-35835.540,-50390.860,-10673.570,-38981.690,-36113.450,-139053.500,0.000
-35660.710,-36713.660,-35793.590,-50184.710,-10654.650,-38942.180,-36066.180,-138814.600,0.000
-35632.230,-36684.160,-35766.240,-50023.770,-10650.270,-38911.390,-36037.310,-138579.300,0.000
-35608.740,-36659.950,-35737.540,-49840.470,-10646.040,-38883.680,-36001.850,-138337.300,0.000
-35581.160,-36630.630,-35707.700,-49652.820,-10638.600,-38850.340,-35967.410,-138094.700,0.000
-35545.190,-36587.280,-35663.680,-49446.240,-10617.930,-38804.220,-35916.090,-137813.800,0.000
-35506.070,-36539.630,-35618.970,-49233.770,-10595.650,-38752.860,-35865.780,-137516.800,0.000
-35466.840,-36498.030,-35580.150,-49083.840,-10580.860,-38707.750,-35827.690,-137251.500,0.000
-35429.770,-36463.580,-35540.480,-48920.540,-10569.400,-38674.210,-35790.410,-136965.400,0.000
-35398.640,-36437.730,-35512.680,-48766.020,-10567.290,-38649.030,-35769.810,-136685.800,0.000
-35368.360,-36410.970,-35481.660,-48594.730,-10560.520,-38620.230,-35739.640,-136376.800,0.000
-35337.310,-36379.710,-35450.910,-48405.950,-10551.130,-38583.780,-35706.030,-136014.500,0.000
-35307.110,-36346.860,-35423.520,-48272.290,-10543.930,-38545.970,-35675.460,-135678.700,0.000
-35279.810,-36315.880,-35392.680,-48121.790,-10535.680,-38513.180,-35637.260,-135346.400,0.000
-35254.210,-36287.350,-35367.880,-47978.290,-10533.460,-38482.350,-35609.770,-135030.500,0.000
-35224.510,-36253.970,-35335.370,-47823.000,-10526.020,-38446.740,-35573.260,-134699.900,0.000
-35193.970,-36220.940,-35304.120,-47657.260,-10519.370,-38410.750,-35540.940,-134336.600,0.000
-35160.260,-36186.880,-35273.170,-47537.790,-10512.830,-38375.480,-35513.560,-133996.800,0.000
-35123.850,-36149.570,-35234.460,-47380.840,-10499.360,-38339.840,-35474.390,-133650.600,0.000
-35092.270,-36117.630,-35205.330,-47220.310,-10491.990,-38304.180,-35445.330,-133335.600,0.000
-35059.780,-36083.640,-35169.750,-47043.910,-10478.780,-38262.200,-35404.050,-133027.300,0.000
-35027.920,-36049.670,-35134.720,-46863.600,-10467.140,-38221.180,-35366.240,-132714.000,0.000
-34997.030,-36017.570,-35103.860,-46748.750,-10462.840,-38187.700,-35342.030,-132459.900,0.000
-34961.220,-35979.110,-35063.370,-46608.300,-10452.000,-38153.390,-35307.310,-132208.200,0.000
-34922.650,-35939.280,-35025.970,-46466.210,-10441.350,-38114.480,-35275.910,-131971.600,0.000
-34881.450,-35898.920,-34984.260,-46304.650,-10426.270,-38071.970,-35233.250,-131734.700,0.000
-34842.540,-35861.450,-34948.200,-46130.640,-10414.930,-38031.040,-35195.250,-131491.700,0.000
-34806.900,-35826.630,-34917.580,-46012.670,-10408.250,-37992.600,-35165.470,-131293.100,0.000
-34769.790,-35787.660,-34878.250,-45858.070,-10393.760,-37951.090,-35122.060,-131067.500,0.000
-34730.970,-35748.130,-34842.630,-45697.490,-10381.220,-37908.750,-35085.790,-130831.300,0.000
-34689.020,-35708.970,-34802.540,-45530.210,-10368.080,-37871.040,-35047.000,-130588.300,0.000
-34644.540,-35669.290,-34762.390,-45371.340,-10355.910,-37834.110,-35013.400,-130340.200,0.000
-34596.900,-35624.710,-34719.560,-45286.800,-10340.290,-37789.440,-34978.500,-130135.600,0.000
-34549.750,-35576.540,-34669.480,-45187.380,-10317.260,-37739.620,-34927.630,-129915.900,0.000
-34509.790,-35535.170,-34631.110,-45106.020,-10302.600,-37695.310,-34890.440,-129711.100,0.000
-34474.030,-35498.530,-34592.580,-45020.660,-10290.140,-37659.210,-34854.820,-129516.700,0.000
-34437.030,-35459.620,-34554.370,-44924.880,-10278.640,-37621.910,-34822.370,-129320.400,0.000
-34395.500,-35414.420,-34515.430,-44883.870,-10265.500,-37576.820,-34787.690,-129167.500,0.000
-34353.410,-35370.140,-34472.230,-44813.120,-10249.170,-37532.860,-34743.320,-128999.500,0.000
-34311.500,-35331.820,-34436.030,-44749.240,-10239.510,-37492.130,-34711.590,-128846.600,0.000
-34266.370,-35291.490,-34393.230,-44674.480,-10225.210,-37447.020,-34669.890,-128707.900,0.000
-34229.720,-35257.020,-34359.040,-44590.890,-10215.990,-37405.540,-34635.170,-128576.600,0.000
-34202.330,-35228.450,-34332.700,-44563.590,-10212.200,-37372.820,-34609.210,-128495.200,0.000
-34172.290,-35192.400,-34294.340,-44505.010,-10198.460,-37336.280,-34565.900,-128398.600,0.000
-34139.480,-35150.710,-34256.980,-44464.070,-10185.800,-37291.840,-34528.040,-128319.600,0.000
-34106.340,-35107.600,-34214.740,-44423.760,-10171.180,-37247.040,-34485.070,-128255.800,0.000
-34074.320,-35068.310,-34176.840,-44368.760,-10158.760,-37205.460,-34447.570,-128188.600,0.000
-34039.680,-35030.550,-34143.180,-44355.740,-10148.830,-37164.830,-34416.250,-128150.200,0.000
-33999.980,-34989.350,-34101.750,-44303.350,-10133.200,-37121.470,-34372.740,-128078.000,0.000
-33958.260,-34949.010,-34064.170,-44268.680,-10120.180,-37075.850,-34335.540,-128015.000,0.000
-33920.300,-34913.550,-34026.720,-44238.730,-10108.980,-37036.590,-34294.570,-127967.900,0.000
-33890.770,-34885.560,-33999.610,-44196.000,-10106.810,-37005.400,-34264.210,-127917.900,0.000
-33855.880,-34849.780,-33968.660,-44186.300,-10099.890,-36964.320,-34232.700,-127884.600,0.000
-33811.040,-34799.450,-33920.110,-44130.790,-10076.940,-36908.950,-34181.030,-127803.500,0.000
-33773.100,-34754.210,-33882.380,-44105.030,-10064.340,-36861.110,-34146.570,-127728.800,0.000
-33746.330,-34719.410,-33850.680,-44091.460,-10061.100,-36828.700,-34116.290,-127663.600,0.000
-33721.220,-34688.130,-33821.540,-44056.730,-10059.460,-36796.890,-34087.030,-127581.000,0.000
-33687.320,-34651.540,-33786.300,-44051.550,-10050.660,-36754.440,-34052.430,-127512.900,0.000
-33646.070,-34608.460,-33739.930,-44005.290,-10031.820,-36706.250,-34003.590,-127405.400,0.000
-33606.190,-34567.400,-33702.450,-43992.560,-10019.860,-36661.410,-33968.950,-127308.700,0.000
-33564.290,-34524.120,-33658.780,-43985.710,-10003.740,-36616.760,-33924.900,-127214.500,0.000
-33520.220,-34481.230,-33614.300,-43946.610,-9986.213,-36570.620,-33879.050,-127092.000,0.000
-33481.500,-34446.930,-33579.000,-43936.040,-9978.165,-36532.210,-33845.020,-126981.600,0.000
-33450.890,-34417.990,-33547.550,-43888.230,-9975.046,-36502.010,-33811.300,-126831.400,0.000
-33422.190,-34386.500,-33522.540,-43871.640,-9975.025,-36467.840,-33786.880,-126684.300,0.000
-33387.680,-34346.170,-33484.400,-43859.410,-9964.037,-36425.930,-33747.050,-126537.800,0.000
-33351.590,-34304.240,-33443.780,-43818.960,-9950.845,-36382.860,-33706.520,-126376.200,0.000
-33313.690,-34262.150,-33403.990,-43804.100,-9938.551,-36338.620,-33669.170,-126242.500,0.000
-33274.570,-34220.070,-33360.800,-43749.860,-9923.389,-36295.140,-33624.630,-126087.600,0.000
-33236.270,-34181.450,-33328.050,-43735.430,-9914.775,-36253.100,-33594.020,-125957.000,0.000
-33190.290,-34137.920,-33284.310,-43725.590,-9897.565,-36206.930,-33549.490,-125835.800,0.000
-33140.200,-34093.300,-33236.100,-43677.100,-9877.958,-36161.000,-33503.080,-125699.700,0.000
-33093.230,-34050.650,-33191.280,-43648.250,-9862.577,-36117.440,-33462.510,-125594.500,0.000
-33054.230,-34009.750,-33147.870,-43579.650,-9848.637,-36075.260,-33417.090,-125471.500,0.000
-33023.770,-33974.060,-33118.360,-43553.860,-9844.733,-36035.400,-33389.250,-125376.700,0.000
-32992.560,-33935.930,-33083.090,-43538.870,-9836.040,-35994.240,-33353.130,-125300.800,0.000
-32958.310,-33894.430,-33045.390,-43484.370,-9824.151,-35949.040,-33313.200,-125214.500,0.000
-32917.790,-33849.230,-33004.460,-43438.660,-9809.692,-35899.240,-33271.520,-125153.500,0.000
-32874.790,-33805.420,-32958.310,-43347.700,-9792.021,-35853.060,-33222.220,-125075.100,0.000
-32836.090,-33769.390,-32924.020,-43300.760,-9784.084,-35813.630,-33189.000,-125030.000,0.000
-32796.860,-33732.420,-32883.970,-43263.800,-9773.381,-35774.160,-33147.050,-124997.900,0.000
-32759.740,-33696.900,-32846.460,-43191.070,-9765.126,-35735.890,-33108.320,-124947.500,0.000
-32724.510,-33662.300,-32813.360,-43135.600,-9760.032,-35698.210,-33075.610,-124917.700,0.000
-32687.710,-33623.640,-32773.910,-43035.310,-9749.499,-35658.900,-33034.910,-124854.900,0.000
-32649.920,-33582.740,-32738.730,-42975.910,-9741.008,-35614.350,-33003.540,-124804.300,0.000
-32609.730,-33536.130,-32694.620,-42926.650,-9724.115,-35560.820,-32954.890,-124752.900,0.000
-32572.730,-33491.380,-32653.900,-42844.140,-9708.938,-35509.580,-32906.560,-124674.700,0.000
-32537.650,-33451.450,-32618.590,-42785.950,-9699.911,-35467.900,-32869.170,-124614.800,0.000
-32499.710,-33411.470,-32576.810,-42687.540,-9687.280,-35429.160,-32827.180,-124523.400,0.000
-32461.160,-33372.830,-32540.650,-42628.180,-9678.644,-35388.160,-32797.520,-124448.100,0.000
-32420.400,-33331.090,-32497.700,-42579.550,-9665.235,-35345.740,-32756.120,-124383.400,0.000
-32375.360,-33284.960,-32452.360,-42496.160,-9649.098,-35298.970,-32708.640,-124299.500,0.000
-32324.900,-33234.180,-32404.120,-42428.320,-9629.796,-35243.600,-32657.110,-124229.900,0.000
-32279.000,-33187.630,-32354.740,-42322.800,-9610.319,-35192.890,-32601.450,-124133.400,0.000
-32249.390,-33158.160,-32327.400,-42277.500,-9609.638,-35159.290,-32574.660,-124074.900,0.000
-32235.640,-33143.590,-32311.620,-42264.740,-9621.084,-35142.290,-32558.220,-124046.700,0.000
-32233.860,-33140.560,-32309.050,-42231.590,-9644.972,-35136.960,-32557.230,-124012.300,0.000
-32225.910,-33131.910,-32302.220,-42215.410,-9664.973,-35125.870,-32554.130,-123996.100,0.000
-32185.750,-33092.050,-32259.760,-42125.430,-9652.595,-35087.040,-32512.660,-123913.700,0.000
-32109.750,-33019.130,-32190.070,-42035.000,-9613.092,-35013.900,-32448.870,-123794.600,0.000
-32023.410,-32934.320,-32104.830,-41944.590,-9558.698,-34925.090,-32361.140,-123656.800,0.000
-31957.790,-32867.480,-32039.480,-41842.840,-9521.658,-34853.370,-32291.290,-123495.100,0.000
-31919.140,-32826.890,-32002.110,-41787.950,-9513.666,-34811.820,-32257.050,-123332.100,0.000
-31886.930,-32789.340,-31964.210,-41693.950,-9507.133,-34775.250,-32220.190,-123078.300,0.000
-31841.460,-32735.660,-31917.200,-41622.880,-9487.974,-34718.780,-32173.800,-122762.900,0.000
-31788.960,-32676.230,-31858.760,-41559.140,-9458.644,-34656.090,-32111.170,-122406.200,0.000
-31745.290,-32630.260,-31813.000,-41479.320,-9441.014,-34606.650,-32063.050,-122021.800,0.000
-31708.420,-32594.500,-31780.110,-41434.140,-9435.777,-34567.320,-32029.600,-121670.600,0.000
-31686.290,-32575.270,-31759.570,-41365.260,-9444.821,-34545.140,-32004.060,-121322.400,0.000
-31688.820,-32582.560,-31769.510,-41361.700,-9482.024,-34546.730,-32011.810,-121021.300,0.000
-31694.590,-32591.420,-31776.690,-41372.860,-9518.393,-34551.310,-32014.100,-120702.300,0.000
-31679.010,-32578.100,-31763.200,-41331.100,-9536.223,-34536.130,-32003.460,-120273.400,0.000
-31632.800,-32533.290,-31719.990,-41284.410,-9524.387,-34487.920,-31965.910,-119758.100,0.000
-31577.030,-32474.070,-31659.450,-41189.840,-9492.055,-34422.800,-31897.760,-119142.200,0.000
-31541.600,-32430.290,-31622.390,-41150.330,-9479.538,-34375.060,-31857.030,-118503.400,0.000
-31517.840,-32395.170,-31590.960,-41127.850,-9476.825,-34344.140,-31828.060,-117836.100,0.000
-31488.830,-32358.190,-31556.350,-41076.190,-9470.946,-34310.120,-31798.830,-117149.600,0.000
-31457.020,-32324.300,-31523.220,-41058.940,-9465.737,-34272.040,-31767.880,-116544.200,0.000
-31429.180,-32296.710,-31492.630,-41008.070,-9464.534,-34239.960,-31733.390,-115995.800,0.000
-31399.710,-32270.120,-31470.610,-40988.620,-9471.018,-34210.510,-31714.440,-115545.700,0.000
-31358.870,-32233.780,-31434.660,-40965.070,-9466.169,-34172.140,-31678.910,-115168.700,0.000
-31314.860,-32192.410,-31395.330,-40913.640,-9455.769,-34125.580,-31635.960,-114817.900,0.000
-31273.730,-32148.950,-31357.440,-40897.340,-9445.304,-34076.770,-31593.520,-114508.600,0.000
-31233.270,-32103.770,-31312.370,-40837.750,-9430.407,-34029.390,-31543.400,-114172.400,0.000
-31196.370,-32064.440,-31274.610,-40804.940,-9423.013,-33986.310,-31509.590,-113847.200,0.000
-31163.990,-32029.460,-31234.660,-40776.360,-9415.172,-33947.270,-31471.100,-113536.900,0.000
-31133.900,-31995.030,-31197.500,-40730.160,-9407.528,-33908.130,-31433.630,-113244.600,0.000
-31099.560,-31954.440,-31158.300,-40719.080,-9397.257,-33863.330,-31395.200,-112997.500,0.000
-31059.730,-31909.450,-31111.510,-40659.560,-9381.825,-33815.670,-31346.760,-112717.600,0.000
-31016.930,-31867.780,-31073.290,-40620.820,-9373.799,-33770.120,-31312.610,-112467.600,0.000
-30967.280,-31821.890,-31027.290,-40572.130,-9359.329,-33723.160,-31267.060,-112249.900,0.000
-30913.430,-31770.500,-30978.630,-40494.410,-9339.321,-33671.240,-31216.350,-112017.200,0.000
-30861.570,-31719.570,-30931.300,-40456.680,-9319.742,-33617.520,-31166.830,-111809.300,0.000
-30819.190,-31677.360,-30885.280,-40383.610,-9304.711,-33572.140,-31117.010,-111621.600,0.000
-30783.870,-31642.610,-30850.930,-40338.770,-9300.950,-33533.080,-31086.180,-111524.400,0.000
-30738.070,-31594.030,-30801.630,-40282.460,-9283.242,-33481.810,-31037.080,-111499.000,0.000
-30683.420,-31534.340,-30745.880,-40196.840,-9256.618,-33419.220,-30981.000,-111537.300,0.000
-30634.260,-31480.950,-30697.630,-40153.720,-9237.102,-33362.330,-30934.860,-111693.100,0.000
-30594.840,-31436.980,-30654.200,-40075.130,-9223.691,-33317.250,-30890.800,-111896.300,0.000
-30555.030,-31395.260,-30618.580,-40022.980,-9215.902,-33274.890,-30858.830,-112167.000,0.000
-30502.330,-31343.450,-30567.270,-39960.110,-9194.167,-33222.120,-30805.130,-112478.500,0.000
-30448.000,-31291.720,-30516.100,-39876.270,-9171.833,-33166.230,-30749.430,-112807.000,0.000
-30402.240,-31248.590,-30473.970,-39843.110,-9160.180,-33118.910,-30705.670,-113197.700,0.000
-30359.390,-31206.040,-30427.460,-39771.380,-9146.710,-33075.390,-30656.290,-113589.400,0.000
-30316.370,-31163.760,-30386.420,-39723.620,-9136.183,-33032.550,-30619.810,-113987.400,0.000
-30269.800,-31118.520,-30338.490,-39670.220,-9120.840,-32990.080,-30576.990,-114334.800,0.000
-30212.720,-31062.750,-30282.980,-39585.810,-9097.260,-32936.920,-30528.370,-114596.600,0.000
-30144.600,-30994.880,-30217.910,-39530.890,-9062.500,-32867.530,-30468.200,-114805.200,0.000
-30084.620,-30932.210,-30153.690,-39441.560,-9028.042,-32799.330,-30399.100,-114898.400,0.000
-30042.870,-30885.130,-30111.400,-39397.140,-9012.109,-32742.660,-30352.320,-114919.100,0.000
-30006.680,-30839.630,-30068.740,-39358.080,-8996.448,-32689.310,-30301.190,-114861.900,0.000
-29972.150,-30796.420,-30030.170,-39299.200,-8983.837,-32638.870,-30256.280,-114739.900,0.000
-29935.270,-30756.860,-29993.630,-39280.670,-8975.280,-32593.200,-30218.810,-114633.000,0.000
-29888.340,-30710.610,-29945.130,-39221.300,-8958.796,-32545.800,-30170.570,-114515.000,0.000
-29831.240,-30655.740,-29895.260,-39197.140,-8940.567,-32491.410,-30128.960,-114444.100,0.000
-29768.140,-30595.130,-29835.300,-39182.390,-8915.243,-32431.940,-30075.040,-114399.700,0.000
-29710.720,-30541.420,-29781.880,-39156.470,-8895.645,-32374.980,-30027.780,-114352.400,0.000
-29660.830,-30497.620,-29738.170,-39175.680,-8884.993,-32326.320,-29991.330,-114346.300,0.000
-29612.170,-30455.160,-29690.980,-39153.690,-8871.104,-32285.150,-29945.710,-114334.300,0.000
-29565.200,-30412.290,-29649.420,-39164.210,-8859.563,-32243.180,-29907.690,-114365.300,0.000
-29522.780,-30367.550,-29604.250,-39185.060,-8845.541,-32197.010,-29861.960,-114425.300,0.000
-29487.360,-30324.460,-29566.080,-39192.140,-8836.340,-32151.380,-29821.750,-114449.900,0.000
-29450.950,-30280.250,-29528.960,-39231.360,-8827.248,-32104.440,-29782.540,-114413.700,0.000
-29410.200,-30233.760,-29483.090,-39224.090,-8811.449,-32055.390,-29732.430,-114290.200,0.000
-29369.830,-30191.330,-29444.540,-39255.010,-8802.700,-32007.450,-29695.610,-114214.000,0.000
-29327.790,-30148.990,-29400.530,-39290.520,-8792.236,-31961.710,-29650.750,-114205.800,0.000
-29288.670,-30110.380,-29362.470,-39302.960,-8787.278,-31923.030,-29614.370,-114160.900,0.000
-29250.350,-30073.880,-29329.630,-39352.890,-8786.362,-31886.610,-29586.510,-114051.900,0.000
-29202.630,-30027.960,-29284.130,-39360.080,-8772.193,-31838.290,-29540.860,-113873.200,0.000
-29147.170,-29974.330,-29235.570,-39398.910,-8751.589,-31777.830,-29494.400,-113684.000,0.000
-29093.240,-29921.610,-29181.700,-39442.650,-8727.652,-31719.610,-29439.170,-113503.000,0.000
-29048.490,-29877.480,-29137.830,-39463.360,-8713.773,-31671.920,-29394.800,-113335.200,0.000
-29008.030,-29835.180,-29099.130,-39516.310,-8705.394,-31626.400,-29356.660,-113182.500,0.000
-28968.840,-29790.380,-29055.480,-39534.390,-8692.622,-31578.480,-29309.540,-112994.200,0.000
-28929.290,-29744.680,-29016.650,-39588.860,-8682.285,-31528.170,-29272.060,-112821.800,0.000
-28879.310,-29689.910,-28962.210,-39626.710,-8659.382,-31470.630,-29216.470,-112675.400,0.000
-28824.190,-29633.630,-28905.590,-39617.190,-8634.902,-31414.120,-29161.010,-112523.100,0.000
-28773.260,-29582.110,-28856.920,-39635.830,-8619.530,-31366.340,-29117.880,-112352.700,0.000
-28724.460,-29530.000,-28806.170,-39624.480,-8603.012,-31316.830,-29068.320,-112141.700,0.000
-28674.760,-29477.810,-28760.460,-39656.210,-8587.274,-31258.750,-29024.040,-111985.900,0.000
-28623.270,-29423.430,-28707.420,-39690.670,-8563.749,-31197.330,-28966.000,-111893.200,0.000
-28580.510,-29375.480,-28662.570,-39706.630,-8545.660,-31144.340,-28914.800,-111814.600,0.000
-28548.670,-29337.810,-28628.790,-39758.440,-8538.893,-31103.480,-28877.880,-111739.900,0.000
-28515.700,-29301.500,-28590.620,-39758.660,-8531.115,-31064.510,-28836.600,-111624.100,0.000
-28476.690,-29263.470,-28555.880,-39794.200,-8526.149,-31020.300,-28804.730,-111498.600,0.000
-28433.970,-29220.980,-28515.150,-39871.260,-8517.790,-30973.400,-28766.250,-111339.100,0.000
-28391.110,-29175.880,-28476.410,-39988.310,-8510.439,-30925.550,-28732.820,-111210.900,0.000
-28341.550,-29124.860,-28432.160,-40187.090,-8497.384,-30870.470,-28695.480,-111233.900,0.000
-28286.600,-29070.080,-28377.640,-40363.070,-8475.158,-30811.690,-28643.280,-111319.100,0.000
-28239.600,-29023.580,-28335.990,-40555.130,-8462.872,-30761.640,-28605.650,-111388.700,0.000
-28201.460,-28985.430,-28295.260,-40690.510,-8453.652,-30721.960,-28561.950,-111353.200,0.000
-28163.830,-28948.270,-28252.810,-40716.630,-8443.229,-30682.210,-28513.380,-111234.400,0.000
-28115.430,-28897.850,-28198.500,-40679.700,-8421.551,-30629.280,-28453.300,-111137.900,0.000
-28059.300,-28837.820,-28132.470,-40524.110,-8389.362,-30566.930,-28378.630,-111007.100,0.000
-28009.330,-28787.620,-28082.650,-40357.790,-8372.035,-30512.790,-28325.860,-110836.500,0.000
-27965.540,-28744.790,-28037.340,-40158.640,-8362.071,-30470.240,-28276.970,-110589.800,0.000
-27923.440,-28702.600,-27994.160,-39898.040,-8352.649,-30427.680,-28230.120,-110288.500,0.000
-27880.510,-28659.290,-27949.270,-39636.800,-8339.880,-30383.340,-28180.910,-110028.500,0.000
-27834.690,-28612.140,-27897.160,-39309.870,-8319.635,-30338.820,-28121.530,-109756.200,0.000
-27779.770,-28556.440,-27844.060,-38990.980,-8295.618,-30282.390,-28067.240,-109459.800,0.000
-27716.050,-28491.930,-27778.590,-38653.380,-8261.461,-30215.760,-27998.370,-109106.000,0.000
-27664.140,-28438.460,-27725.290,-38302.800,-8237.737,-30158.880,-27939.710,-108725.500,0.000
-27626.300,-28397.690,-27685.120,-38004.960,-8226.377,-30112.220,-27894.350,-108390.300,0.000
-27587.450,-28353.270,-27638.840,-37671.250,-8210.505,-30062.590,-27841.530,-108031.500,0.000
-27545.600,-28306.800,-27597.480,-37371.770,-8197.021,-30010.510,-27798.250,-107696.000,0.000
-27504.560,-28264.000,-27553.950,-37081.170,-8183.769,-29965.430,-27751.220,-107417.300,0.000
-27466.610,-28224.940,-27514.990,-36795.860,-8175.470,-29925.730,-27711.100,-107144.700,0.000
-27421.570,-28178.160,-27471.110,-36576.390,-8161.968,-29875.630,-27665.690,-106865.100,0.000
-27370.050,-28125.550,-27418.760,-36336.820,-8140.404,-29817.400,-27607.290,-106571.800,0.000
-27327.340,-28083.250,-27381.340,-36144.100,-8132.667,-29768.960,-27570.210,-106316.000,0.000
-27289.520,-28044.330,-27341.470,-35958.110,-8126.142,-29728.090,-27530.820,-106102.500,0.000
-27245.040,-27998.030,-27295.850,-35767.880,-8112.760,-29680.850,-27486.760,-105902.600,0.000
-27192.550,-27943.750,-27244.970,-35642.560,-8093.028,-29625.010,-27437.630,-105671.100,0.000
-27141.550,-27889.390,-27190.670,-35495.930,-8071.069,-29569.070,-27381.970,-105381.300,0.000
-27097.480,-27842.740,-27147.710,-35384.360,-8059.628,-29518.980,-27344.360,-105137.600,0.000
-27053.460,-27797.230,-27100.320,-35271.270,-8046.687,-29472.110,-27300.750,-104942.900,0.000
-27003.060,-27745.790,-27049.830,-35152.460,-8028.730,-29418.910,-27251.080,-104729.100,0.000
-26943.250,-27685.620,-26993.660,-35090.010,-8003.669,-29355.890,-27195.550,-104504.000,0.000
-26884.670,-27626.440,-26934.460,-34995.640,-7976.972,-29294.950,-27137.260,-104269.800,0.000
-26835.460,-27575.810,-26887.160,-34929.130,-7960.554,-29240.320,-27095.810,-104043.600,0.000
-26790.700,-27527.990,-26837.850,-34854.820,-7942.961,-29187.560,-27046.540,-103801.500,0.000
-26753.300,-27488.040,-26799.780,-34778.140,-7934.094,-29141.970,-27005.770,-103575.000,0.000
-26715.710,-27448.940,-26764.500,-34754.110,-7928.686,-29098.800,-26968.470,-103404.400,0.000
-26668.140,-27399.240,-26714.350,-34673.480,-7911.421,-29048.150,-26914.870,-103228.900,0.000
-26619.910,-27348.660,-26668.790,-34600.100,-7897.539,-28997.520,-26871.740,-103054.300,0.000
-26578.940,-27304.970,-26625.610,-34507.530,-7887.400,-28954.140,-26827.850,-102855.100,0.000
-26544.190,-27269.170,-26590.520,-34396.490,-7882.613,-28913.370,-26788.420,-102650.800,0.000
-26505.250,-27230.790,-26553.600,-34328.250,-7875.486,-28868.710,-26747.070,-102500.800,0.000
