EEG 1, EEG 2, EEG 3, EEG 4, EEG 5, EEG 6, EEG 7, EEG 8, TRIG
48853.710,49479.930,51092.940,146475.600,15160.430,51582.730,48960.050,146475.600,0.000
161578.100,163643.800,168881.000,487151.300,50356.890,170589.100,161905.700,487151.300,0.000
241207.300,244276.400,251853.800,726483.200,75742.100,254618.600,241622.600,734571.100,0.000
259377.800,262658.100,270487.700,762308.300,82306.880,273736.500,259722.600,801303.100,0.000
260823.700,264107.700,271724.500,727819.000,83664.410,275198.700,261146.800,817789.300,0.000
248888.600,252011.400,259060.200,650249.800,80794.700,262540.200,249262.100,793229.100,0.000
224623.200,227429.900,233567.300,541039.300,73934.130,236873.500,225002.900,730188.300,0.000
210202.100,212819.800,218422.100,467007.800,69908.730,221616.400,210521.900,694636.800,0.000
218966.000,221689.500,227542.700,470424.000,72960.160,230844.500,219235.300,727301.400,0.000
234005.300,236909.200,243208.800,501105.300,77995.230,246688.100,234278.300,778897.900,0.000
231187.700,234041.100,240186.500,481824.000,77548.700,243670.800,231487.500,777435.200,0.000
211843.900,214441.000,219902.300,411096.200,71916.880,223214.500,212133.100,725877.100,0.000
199149.900,201578.900,206611.300,359103.400,68211.500,209794.900,199400.600,692829.800,0.000
205656.300,208160.600,213413.400,368442.000,70388.640,216651.600,205887.000,716399.200,0.000
217691.500,220341.100,225976.900,399773.100,74320.180,229339.900,217931.600,756732.600,0.000
215827.500,218448.000,223986.500,391044.000,73998.290,227350.900,216079.900,755871.400,0.000
200956.700,203387.000,208407.200,340786.000,69610.620,211633.300,201193.200,715684.700,0.000
191037.700,193343.100,198037.000,303826.600,66665.400,201149.300,191250.200,689324.900,0.000
195770.700,198137.000,202999.100,313335.800,68215.630,206137.600,195979.300,706219.100,0.000
204791.500,207271.200,212424.100,339383.100,71127.300,215652.100,205009.300,736143.100,0.000
203427.600,205885.700,210969.700,334977.400,70862.800,214201.600,203646.200,735320.200,0.000
192310.100,194622.200,199324.400,299022.000,67556.800,202455.300,192511.900,705038.700,0.000
184736.600,186951.700,191413.000,272428.200,65290.820,194456.800,184934.300,684659.600,0.000
187861.000,190120.500,194700.500,279784.000,66312.910,197757.100,188077.600,695730.100,0.000
194182.400,196527.400,201315.100,299246.600,68347.380,204430.100,194412.100,715911.800,0.000
193136.900,195468.100,200207.200,296829.000,68122.980,203320.500,193356.500,713508.200,0.000
185143.200,187368.000,191836.500,271714.900,65733.020,194873.500,185340.100,689629.600,0.000
179534.900,181683.700,185979.500,252863.700,64048.090,188945.900,179730.700,671799.400,0.000
181292.000,183461.000,187831.500,257510.700,64626.090,190795.600,181507.000,675043.100,0.000
185308.600,187527.500,192032.200,270614.900,65910.680,195031.200,185528.900,685284.800,0.000
184469.100,186674.500,191140.300,269110.400,65703.730,194138.500,184668.700,682168.000,0.000
179022.200,181156.000,185434.700,252401.800,64066.590,188378.900,179193.000,665867.800,0.000
175017.900,177100.200,181254.400,239505.100,62859.650,184142.700,175186.900,653261.800,0.000
175651.800,177744.800,181931.100,241584.500,63078.410,184809.000,175842.400,653633.900,0.000
177778.600,179903.000,184159.600,249170.500,63763.080,187055.900,177976.200,658461.600,0.000
177069.200,179185.500,183413.000,248064.500,63574.540,186307.700,177248.900,655619.800,0.000
173630.500,175701.500,179815.500,237833.100,62536.240,182676.600,173790.700,645105.900,0.000
170901.800,172936.800,176971.600,229518.200,61711.890,179794.900,171072.600,636357.100,0.000
170660.900,172692.000,176733.000,229437.100,61652.280,179540.700,170859.100,634491.100,0.000
171288.600,173326.700,177394.600,232508.200,61853.710,180204.500,171492.400,635196.100,0.000
170650.400,172676.600,176721.600,231519.600,61661.360,179527.900,170830.900,632568.400,0.000
168769.100,170765.500,174746.500,226194.700,61090.380,177533.000,168921.900,626485.000,0.000
167055.100,169024.700,172954.800,221382.400,60576.840,175714.000,167209.300,620735.100,0.000
166178.100,168135.600,172046.100,219642.800,60317.000,174784.200,166351.900,617241.800,0.000
165678.800,167634.000,171531.700,219237.200,60160.750,174260.500,165855.300,614859.000,0.000
165069.800,167021.800,170898.500,218240.200,59963.030,173623.400,165230.100,612359.400,0.000
164312.000,166256.200,170109.400,216501.100,59726.120,172826.300,164459.600,609550.600,0.000
163337.600,165270.700,169099.300,214280.200,59435.910,171799.700,163501.700,606073.300,0.000
162011.800,163928.800,167723.800,211363.200,59033.640,170402.100,162202.400,601502.400,0.000
160706.800,162604.900,166364.300,208428.100,58618.610,169024.200,160897.100,596950.100,0.000
160118.100,162003.700,165747.800,207370.100,58414.460,168399.700,160284.000,594529.300,0.000
160166.300,162046.800,165795.200,208147.000,58414.980,168443.600,160307.700,594022.500,0.000
159749.300,161619.000,165357.400,207789.400,58289.680,167994.500,159890.400,592191.000,0.000
158168.900,160015.600,163705.800,204139.600,57807.430,166320.500,158322.200,586982.000,0.000
156342.300,158167.000,161798.900,199511.600,57229.430,164390.900,156491.100,581015.900,0.000
155753.000,157574.900,161187.400,198377.800,57020.770,163771.300,155884.800,578636.600,0.000
156309.700,158144.900,161775.800,200787.200,57175.680,164364.300,156432.300,579631.100,0.000
156245.200,158082.900,161716.300,201669.400,57156.670,164301.200,156381.700,578912.900,0.000
154510.200,156325.900,159910.200,197619.100,56625.800,162472.700,154667.700,573392.400,0.000
152371.700,154159.100,157680.400,191975.600,55956.300,160218.600,152532.600,566608.600,0.000
151784.500,153562.500,157071.000,190784.500,55751.700,159602.200,151935.200,564239.900,0.000
152646.000,154433.400,157975.000,194154.900,55996.590,160512.000,152786.600,566092.600,0.000
152819.200,154608.000,158157.700,195815.300,56043.820,160690.800,152962.800,566060.800,0.000
151055.700,152820.900,156314.100,191655.900,55498.740,158822.800,151204.900,560482.100,0.000
148787.300,150522.100,153943.100,185539.000,54786.380,156423.800,148928.100,553340.800,0.000
148196.300,149921.700,153327.500,184298.500,54577.840,155799.500,148322.400,550956.500,0.000
149185.100,150920.600,154363.300,188089.900,54856.320,156843.400,149299.800,553167.600,0.000
149473.400,151210.100,154666.500,190139.400,54933.550,157145.900,149590.200,553476.900,0.000
147741.200,149453.300,152857.400,186061.100,54396.210,155313.300,147862.800,548013.800,0.000
145460.400,147139.700,150474.500,179867.400,53679.180,152899.900,145572.000,540854.800,0.000
144862.700,146530.300,149851.600,178593.900,53468.870,152264.500,144957.900,538440.300,0.000
145866.800,147544.400,150902.800,182438.900,53757.290,153321.900,145950.800,540662.600,0.000
146208.500,147886.700,151259.700,184630.700,53856.750,153678.400,146293.000,541098.300,0.000
144570.000,146221.200,149545.100,180794.300,53347.120,151940.800,144654.800,535909.100,0.000
142367.800,143984.700,147242.100,174823.800,52649.010,149607.600,142441.900,529009.200,0.000
141758.100,143362.200,146606.200,173538.600,52431.820,148959.300,141820.500,526594.300,0.000
142674.300,144287.100,147565.500,177153.200,52687.710,149925.700,142729.700,528595.300,0.000
142982.300,144597.800,147888.100,179260.000,52766.020,150251.600,143040.000,528978.900,0.000
141448.100,143044.500,146286.000,175747.400,52280.220,148633.800,141511.100,524154.500,0.000
139376.700,140949.300,144126.900,170210.200,51621.350,146452.600,139440.900,517710.200,0.000
138751.900,140321.800,143485.100,168935.400,51403.310,145802.800,138818.500,515318.200,0.000
139527.500,141113.000,144306.500,172148.200,51619.730,146628.800,139593.400,516948.900,0.000
139770.100,141362.000,144567.200,174044.500,51675.020,146886.600,139837.000,517172.500,0.000
138359.500,139934.800,143097.200,170896.800,51217.860,145397.600,138430.000,512744.800,0.000
136459.800,138011.500,141115.600,165897.100,50602.510,143392.800,136528.200,506836.900,0.000
135831.100,137374.400,140464.000,164640.200,50374.360,142729.600,135894.500,504469.300,0.000
136436.900,137988.700,141103.900,167347.400,50531.600,143371.600,136497.700,505639.700,0.000
136598.500,138155.200,141279.000,168959.300,50563.960,143548.700,136666.300,505635.800,0.000
135337.600,136881.400,139966.300,166221.500,50161.970,142224.300,135413.800,501632.000,0.000
133638.900,135162.400,138196.600,161844.900,49615.850,140434.100,133714.700,496314.800,0.000
133010.200,134524.900,137546.800,160632.500,49391.380,139772.200,133083.800,493973.000,0.000
133432.600,134952.800,137996.300,162797.800,49491.620,140222.200,133506.600,494636.800,0.000
133486.700,135010.500,138060.100,164064.900,49482.540,140286.300,133567.800,494340.900,0.000
132348.000,133862.000,136876.500,161684.700,49107.250,139090.300,132436.100,490703.100,0.000
130842.900,132341.800,135310.800,157912.600,48618.690,137504.900,130930.900,485952.900,0.000
130228.400,131720.200,134675.700,156762.500,48406.130,136857.900,130314.000,483651.900,0.000
130491.800,131986.500,134954.800,158418.900,48466.240,137135.900,130573.300,483839.200,0.000
130466.100,131958.200,134927.900,159367.400,48436.380,137106.500,130545.000,483271.500,0.000
129468.700,130944.600,133884.500,157344.800,48103.260,136050.900,129545.300,479989.200,0.000
128156.400,129613.100,132513.800,154150.000,47668.340,134664.800,128228.900,475762.800,0.000
127540.200,128988.000,131873.500,153045.800,47447.250,134014.900,127610.800,473464.800,0.000
127627.100,129075.400,131968.900,154205.300,47447.550,134106.000,127693.800,473165.900,0.000
127500.400,128945.300,131840.700,154830.300,47385.150,133970.800,127563.000,472304.400,0.000
126619.600,128050.500,130923.300,153116.700,47090.760,133038.900,126677.200,469316.300,0.000
125492.900,126907.000,129748.700,150464.200,46722.170,131846.300,125544.100,465573.700,0.000
124894.000,126299.600,129127.700,149435.900,46514.140,131212.800,124943.800,463316.800,0.000
124826.200,126231.100,129061.400,150158.300,46463.390,131142.500,124874.800,462607.600,0.000
124601.600,126001.800,128828.300,150483.200,46362.400,130907.700,124648.200,461492.300,0.000
123812.300,125198.400,128003.100,149036.000,46089.480,130075.300,123855.800,458772.000,0.000
122831.100,124201.500,126979.100,146852.300,45759.460,129038.000,122870.400,455457.100,0.000
122236.800,123599.300,126363.400,145878.600,45549.270,128409.300,122275.400,453230.000,0.000
122041.200,123404.600,126166.500,146216.800,45461.800,128203.500,122078.400,452159.700,0.000
121746.000,123109.400,125865.000,146286.300,45346.800,127894.000,121781.300,450823.900,0.000
121048.200,122404.400,125140.400,145075.800,45109.700,127159.400,121080.100,448338.700,0.000
120196.900,121542.300,124253.700,143297.400,44819.440,126263.000,120225.000,445402.100,0.000
119603.200,120939.800,123637.000,142369.800,44603.640,125639.100,119634.400,443224.300,0.000
119296.300,120628.500,123321.000,142383.900,44480.040,125318.000,119331.800,441881.500,0.000
118932.200,120260.700,122946.200,142233.000,44342.010,124937.200,118970.600,440383.100,0.000
118290.100,119612.800,122282.400,141208.500,44115.360,124265.000,118330.300,438100.600,0.000
117541.000,118857.400,121507.700,139770.600,43854.000,123480.000,117582.200,435486.600,0.000
116964.400,118277.300,120913.900,138896.400,43648.950,122875.200,117008.800,433355.800,0.000
116580.000,117892.000,120519.500,138646.100,43506.660,122470.600,116624.200,431772.900,0.000
116170.800,117479.800,120097.300,138316.100,43358.300,122039.900,116214.900,430119.700,0.000
115596.600,116900.600,119502.400,137464.000,43157.850,121437.600,115642.700,428003.300,0.000
114946.700,116247.300,118830.800,136323.800,42931.090,120757.600,114995.900,425664.300,0.000
114382.900,115679.700,118250.400,135498.800,42730.880,120168.400,114438.400,423580.800,0.000
113927.900,115219.300,117781.700,135034.400,42565.260,119691.300,113984.600,421815.100,0.000
113467.300,114752.600,117305.500,134544.300,42394.950,119206.200,113519.900,420038.100,0.000
112927.200,114207.700,116746.700,133798.400,42198.540,118637.100,112974.800,418035.500,0.000
112347.500,113625.300,116147.900,132877.300,41992.370,118027.800,112393.500,415902.100,0.000
111796.100,113070.900,115579.600,132094.800,41796.550,117450.400,111849.400,413862.000,0.000
111289.300,112559.900,115057.000,131468.800,41614.130,116920.400,111349.900,411961.100,0.000
110794.500,112058.900,114545.100,130858.200,41433.460,116401.300,110857.100,410093.400,0.000
110287.200,111543.800,114018.800,130196.900,41248.330,115867.000,110346.300,408186.300,0.000
109765.700,111013.600,113477.800,129445.700,41060.880,115317.500,109820.100,406220.900,0.000
109228.300,110468.100,112921.600,128703.400,40868.160,114752.000,109283.800,404230.900,0.000
108685.000,109919.600,112360.300,127967.900,40670.270,114180.800,108741.900,402249.200,0.000
108161.200,109392.400,111819.700,127275.600,40476.330,113633.000,108220.800,400328.500,0.000
107668.000,108895.800,111309.400,126676.000,40290.420,113119.400,107731.200,398495.100,0.000
107176.100,108399.100,110798.100,126040.200,40104.540,112605.500,107240.200,396647.100,0.000
106647.100,107863.000,110247.900,125321.300,39911.070,112050.000,106713.000,394690.000,0.000
106093.500,107301.100,109673.800,124513.900,39715.700,111467.200,106158.800,392655.800,0.000
105571.900,106771.500,109135.500,123773.800,39532.000,110917.800,105635.500,390702.700,0.000
105108.800,106302.800,108659.400,123229.400,39364.030,110430.700,105171.100,388924.800,0.000
104655.100,105845.400,108192.800,122695.800,39198.860,109954.500,104717.400,387173.400,0.000
104139.800,105325.100,107661.200,122014.300,39015.550,109413.900,104205.900,385257.500,0.000
103568.700,104749.600,107070.600,121159.400,38811.600,108814.900,103635.500,383192.700,0.000
103028.100,104207.400,106511.100,120374.000,38614.770,108250.900,103095.800,381217.800,0.000
102569.500,103747.000,106035.900,119852.600,38444.640,107774.800,102640.700,379484.300,0.000
102132.100,103303.700,105580.900,119372.400,38281.390,107317.300,102204.700,377803.600,0.000
101625.500,102786.500,105053.100,118707.900,38095.820,106780.800,101697.800,375923.600,0.000
101053.700,102204.000,104459.000,117831.600,37888.420,106174.300,101123.900,373857.500,0.000
100510.900,101652.400,103897.900,117027.900,37688.510,105601.400,100581.400,371880.000,0.000
100060.500,101196.200,103434.200,116519.100,37521.180,105127.400,100132.100,370170.700,0.000
99641.380,100773.400,103002.400,116074.400,37369.510,104687.400,99713.410,368539.100,0.000
99147.870,100274.000,102490.600,115440.600,37193.160,104169.000,99222.750,366709.300,0.000
98582.420,99699.740,101900.600,114579.800,36988.480,103572.300,98655.920,364684.200,0.000
98048.320,99156.190,101342.400,113785.400,36791.480,103006.100,98116.750,362743.800,0.000
97604.430,98704.190,100879.800,113283.200,36623.380,102534.200,97667.280,361064.800,0.000
97185.950,98279.830,100445.300,112843.100,36464.370,102091.700,97244.860,359455.700,0.000
96692.770,97781.200,99934.090,112219.400,36282.450,101575.300,96754.300,357652.400,0.000
96130.350,97212.590,99351.000,111373.100,36078.930,100987.100,96194.510,355658.200,0.000
95603.550,96680.290,98805.350,110586.700,35890.570,100435.100,95669.110,353740.300,0.000
95168.330,96241.270,98354.620,110086.200,35733.600,99978.050,95233.570,352074.700,0.000
94754.730,95822.550,97924.670,109648.300,35578.500,99541.410,94814.840,350480.500,0.000
94272.900,95331.310,97422.240,109034.300,35399.620,99030.180,94327.400,348701.500,0.000
93735.910,94782.760,96861.800,108208.600,35208.670,98458.330,93783.120,346739.900,0.000
93227.420,94261.630,96330.840,107435.900,35027.200,97913.420,93266.280,344844.000,0.000
92791.410,93813.340,95875.630,106931.800,34863.570,97443.710,92821.180,343181.500,0.000
92378.540,93391.990,95446.200,106496.200,34708.160,97003.440,92400.520,341597.300,0.000
91911.210,92919.980,94962.030,105909.100,34542.710,96513.770,91933.140,339854.000,0.000
91387.100,92393.150,94419.260,105120.100,34362.330,95967.880,91412.360,337936.700,0.000
90873.270,91876.600,93887.790,104361.800,34177.250,95431.630,90902.940,336062.600,0.000
90416.340,91416.020,93416.710,103840.700,34000.170,94951.890,90448.720,334394.000,0.000
89983.230,90977.910,92970.770,103385.100,33830.130,94494.630,90014.050,332804.000,0.000
89506.710,90493.740,92478.790,102802.900,33651.640,93990.780,89535.950,331079.000,0.000
88983.590,89962.400,91936.980,102040.500,33461.630,93438.840,89010.510,329199.400,0.000
88481.020,89454.250,91416.130,101306.600,33280.980,92912.090,88509.060,327359.800,0.000
88037.100,89008.090,90957.770,100784.700,33119.990,92450.040,88070.840,325698.300,0.000
87605.980,88576.730,90516.090,100312.400,32959.570,92003.490,87647.460,324095.700,0.000
87131.360,88101.340,90030.450,99739.490,32784.130,91511.520,87181.690,322381.500,0.000
86623.470,87592.050,89507.610,99020.800,32601.080,90980.930,86675.690,320544.500,0.000
86135.710,87100.490,89003.520,98318.390,32425.440,90467.100,86184.940,318734.900,0.000
85695.300,86652.730,88548.360,97788.330,32262.700,90001.130,85741.600,317065.700,0.000
85269.050,86219.450,88108.230,97297.130,32103.290,89552.200,85314.610,315443.600,0.000
84808.220,85753.730,87632.510,96733.790,31934.410,89069.710,84857.850,313731.500,0.000
84311.920,85253.410,87119.910,96048.880,31754.640,88550.140,84364.090,311914.700,0.000
83824.290,84762.340,86617.240,95367.320,31577.710,88041.340,83879.330,310112.900,0.000
83379.620,84316.550,86160.160,94832.340,31417.400,87579.760,83439.470,308433.500,0.000
82954.150,83890.810,85722.410,94330.130,31263.210,87136.590,83016.020,306806.300,0.000
82500.770,83434.950,85254.290,93771.550,31096.100,86661.130,82562.560,305113.400,0.000
82015.480,82945.730,84751.720,93112.160,30915.450,86151.970,82074.880,303340.200,0.000
81534.090,82459.910,84252.840,92452.800,30734.370,85649.860,81594.330,301582.400,0.000
81085.920,82007.650,83788.770,91912.640,30565.840,85183.660,81149.840,299922.600,0.000
80655.400,81573.350,83343.860,91393.120,30406.860,84734.310,80721.620,298303.800,0.000
80203.180,81116.900,82877.910,90836.450,30241.630,84261.860,80274.010,296637.000,0.000
79724.340,80634.630,82385.120,90202.410,30065.540,83761.740,79798.760,294911.900,0.000
79251.530,80159.340,81898.630,89567.030,29890.860,83268.270,79328.910,293201.600,0.000
78808.110,79713.610,81442.270,89027.480,29727.230,82804.640,78888.590,291567.700,0.000
78377.840,79279.220,80998.350,88496.050,29567.060,82351.820,78458.280,289964.000,0.000
77930.550,78824.940,80535.280,87946.020,29398.330,81878.890,78010.370,288333.700,0.000
77465.400,78353.380,80052.860,87342.390,29222.960,81388.240,77544.050,286670.200,0.000
77006.130,77888.750,79576.210,86730.170,29051.020,80906.760,77085.160,285013.700,0.000
76568.420,77444.950,79121.590,86187.840,28887.100,80447.300,76646.480,283407.300,0.000
76138.930,77009.090,78676.220,85644.960,28724.830,79994.210,76213.060,281821.300,0.000
75695.390,76560.300,78218.510,85097.780,28557.330,79528.330,75770.530,280216.100,0.000
75241.120,76103.840,77751.900,84515.060,28389.060,79053.800,75319.540,278584.700,0.000
74791.130,75653.270,77290.920,83924.030,28224.820,78584.450,74873.000,276954.000,0.000
74353.990,75214.520,76842.580,83387.030,28065.850,78128.470,74438.200,275354.600,0.000
73926.250,74784.090,76401.800,82843.000,27910.240,77680.760,74008.560,273764.900,0.000
73495.770,74349.170,75955.190,82309.300,27752.280,77226.850,73575.380,272169.800,0.000
73059.430,73906.540,75500.360,81755.210,27591.550,76765.060,73136.230,270567.400,0.000
72620.350,73461.350,75043.940,81186.930,27429.970,76304.070,72698.420,268962.800,0.000
72183.840,73021.070,74593.340,80652.950,27269.730,75850.790,72266.460,267368.400,0.000
71750.980,72586.910,74149.410,80100.890,27111.850,75403.400,71837.790,265767.800,0.000
71318.210,72153.240,73706.860,79567.550,26954.980,74954.640,71410.420,264164.300,0.000
70887.520,71720.210,73265.340,79026.080,26799.070,74502.950,70980.550,262560.800,0.000
70459.900,71288.360,72825.110,78470.980,26642.910,74050.490,70550.410,260953.100,0.000
70036.700,70859.410,72386.870,77946.210,26486.510,73600.940,70123.930,259355.100,0.000
69618.810,70433.940,71951.080,77403.040,26331.360,73156.100,69701.330,257759.800,0.000
69201.800,70008.520,71515.670,76879.920,26177.460,72714.300,69282.880,256170.200,0.000
68780.480,69580.270,71077.550,76346.780,26021.620,72270.790,68860.260,254579.600,0.000
68350.840,69144.470,70632.010,75791.100,25859.410,71819.770,68429.820,252975.000,0.000
67918.980,68707.020,70184.520,75258.240,25695.950,71366.680,67999.130,251371.900,0.000
67493.050,68277.510,69744.380,74710.010,25538.420,70921.290,67575.160,249773.400,0.000
67070.180,67851.930,69309.460,74187.600,25383.190,70480.460,67156.360,248187.000,0.000
66648.660,67426.230,68876.270,73662.080,25226.710,70038.340,66734.730,246607.000,0.000
66230.920,67001.480,68445.060,73124.200,25071.610,69597.160,66313.450,245023.200,0.000
65817.300,66580.640,68016.600,72614.060,24919.930,69160.280,65896.410,243447.400,0.000
65405.000,66163.460,67589.720,72085.550,24769.590,68726.420,65481.060,241877.800,0.000
64992.880,65746.640,67163.200,71576.610,24617.970,68294.540,65068.740,240318.100,0.000
64582.510,65330.750,66737.840,71060.760,24465.370,67864.040,64657.480,238760.100,0.000
64167.890,64910.450,66307.980,70528.910,24308.940,67427.230,64242.680,237192.800,0.000
63745.390,64483.610,65871.260,70025.740,24148.340,66982.940,63823.210,235635.000,0.000
63324.840,64060.470,65437.530,69510.080,23991.450,66543.490,63405.400,234096.700,0.000
62916.330,63648.840,65015.240,69005.110,23843.000,66116.960,62996.850,232570.600,0.000
62519.530,63248.050,64604.000,68484.480,23701.330,65700.560,62595.940,231039.800,0.000
62120.670,62845.000,64191.660,67969.480,23557.970,65281.310,62195.900,229515.700,0.000
61709.290,62429.350,63768.030,67536.470,23405.950,64849.620,61789.730,228049.100,0.000
61290.520,62007.030,63336.340,67093.450,23245.670,64410.560,61372.660,226620.600,0.000
60876.390,61590.160,62907.430,66559.400,23083.480,63975.650,60950.380,225131.900,0.000
60475.640,61186.690,62492.770,65955.230,22932.190,63554.030,60540.520,223574.600,0.000
60084.140,60791.050,62090.140,65420.670,22795.170,63143.340,60152.580,222050.500,0.000
59693.370,60395.450,61688.570,65029.120,22663.350,62733.450,59773.850,220625.700,0.000
59294.420,59991.500,61275.600,64618.270,22519.780,62313.690,59378.510,219229.700,0.000
58888.470,59579.510,60852.180,64078.840,22360.740,61887.290,58963.510,217739.200,0.000
58487.210,59173.810,60434.450,63463.190,22204.300,61466.930,58552.570,216170.800,0.000
58087.270,58771.170,60021.420,62914.350,22054.590,61047.890,58153.280,214632.300,0.000
57686.160,58366.860,59609.270,62491.230,21908.680,60627.110,57759.660,213178.800,0.000
57289.240,57965.590,59200.770,62064.070,21765.080,60210.000,57364.540,211762.700,0.000
56897.950,57568.330,58794.900,61549.820,21619.330,59797.200,56965.540,210283.600,0.000
56512.290,57177.490,58393.420,60982.960,21475.750,59389.650,56573.120,208750.800,0.000
56125.980,56786.660,57991.840,60461.710,21334.010,58982.870,56188.390,207240.000,0.000
55738.200,56392.640,57588.840,60024.150,21193.460,58573.930,55805.100,205780.200,0.000
55350.430,55997.370,57185.570,59576.130,21051.930,58163.080,55416.700,204340.800,0.000
54960.680,55599.740,56779.890,59074.930,20903.570,57750.660,55021.080,202855.800,0.000
54572.620,55204.930,56377.570,58547.550,20755.550,57341.750,54628.970,201341.100,0.000
54183.890,54810.340,55976.540,58046.460,20609.890,56933.090,54240.860,199842.900,0.000
53788.450,54409.840,55569.090,57588.010,20460.130,56517.200,53847.400,198365.900,0.000
53392.420,54011.310,55161.070,57118.450,20309.780,56102.610,53452.460,196907.800,0.000
53010.090,53628.130,54766.470,56639.080,20169.900,55704.600,53070.090,195442.900,0.000
52638.410,53256.270,54383.450,56157.150,20039.130,55317.160,52698.780,193973.400,0.000
52257.700,52875.080,53992.020,55674.590,19900.180,54920.460,52319.000,192503.600,0.000
51871.240,52485.340,53593.060,55208.410,19755.210,54516.220,51932.860,191035.300,0.000
51492.300,52100.070,53199.630,54739.480,19615.480,54117.410,51554.110,189590.100,0.000
51115.090,51715.400,52807.590,54272.680,19474.540,53721.340,51177.880,188147.600,0.000
50735.610,51329.810,52414.650,53806.090,19330.840,53323.020,50799.700,186713.500,0.000
50357.590,50947.660,52024.270,53334.700,19189.160,52925.600,50421.180,185290.400,0.000
49986.440,50573.910,51641.820,52869.540,19055.670,52535.920,50049.370,183864.600,0.000
49621.550,50207.540,51266.460,52401.390,18929.450,52154.200,49685.820,182454.900,0.000
49255.910,49838.860,50888.700,51946.600,18798.630,51770.390,49318.300,181046.800,0.000
48889.970,49467.430,50508.840,51501.660,18662.370,51380.760,48944.540,179647.300,0.000
48522.040,49092.770,50125.750,51044.360,18522.340,50987.540,48568.140,178250.900,0.000
48150.120,48713.760,49737.950,50573.750,18379.810,50591.450,48191.130,176834.400,0.000
47775.950,48333.800,49349.400,50090.870,18237.030,50194.460,47815.160,175420.900,0.000
47400.360,47954.800,48962.200,49628.800,18093.400,49800.950,47441.700,174013.800,0.000
47030.390,47582.840,48582.230,49192.240,17956.040,49416.240,47076.990,172635.500,0.000
46667.640,47216.350,48207.380,48746.790,17824.300,49036.630,46715.470,171270.700,0.000
46307.040,46849.540,47832.140,48278.930,17692.850,48655.710,46351.090,169876.800,0.000
45944.830,46479.860,47455.210,47798.160,17559.220,48271.080,45985.200,168480.300,0.000
45578.720,46103.790,47073.680,47343.710,17418.110,47879.260,45614.590,167090.800,0.000
45217.630,45732.410,46696.850,46919.980,17280.050,47491.560,45249.960,165732.200,0.000
44867.200,45375.190,46331.700,46491.200,17154.000,47121.160,44898.700,164395.200,0.000
44514.370,45019.060,45965.740,46032.140,17027.320,46753.770,44545.940,163029.300,0.000
44150.100,44654.600,45590.340,45551.840,16891.340,46375.940,44183.820,161655.100,0.000
43782.270,44288.790,45212.180,45105.920,16752.640,45995.380,43820.900,160296.100,0.000
43418.450,43926.650,44837.700,44692.320,16617.560,45618.590,43463.140,158968.900,0.000
43058.900,43564.600,44465.360,44255.370,16482.330,45243.440,43104.060,157640.300,0.000
42705.610,43204.080,44097.750,43783.530,16348.310,44868.700,42743.960,156269.700,0.000
42357.840,42848.910,43737.500,43311.130,16220.800,44497.590,42390.920,154900.700,0.000
42008.170,42493.610,43377.340,42889.730,16094.500,44129.210,42042.890,153552.800,0.000
41651.810,42132.440,43010.590,42498.110,15962.380,43756.280,41691.380,152230.700,0.000
41289.440,41766.080,42636.560,42067.940,15822.240,43377.160,41330.050,150898.100,0.000
40931.320,41406.700,42266.740,41591.850,15685.970,43003.260,40971.080,149520.200,0.000
40584.110,41060.440,41908.800,41118.780,15562.560,42641.450,40627.490,148152.000,0.000
40239.540,40714.530,41553.090,40705.790,15441.030,42281.300,40289.840,146815.700,0.000
39890.620,40361.530,41193.160,40324.890,15313.170,41913.960,39946.110,145507.100,0.000
39539.270,40004.180,40830.200,39901.870,15179.250,41544.320,39593.180,144181.100,0.000
39193.730,39651.330,40471.680,39430.320,15047.340,41179.950,39240.480,142799.800,0.000
38856.180,39307.640,40121.380,38963.000,14922.990,40820.730,38896.220,141422.600,0.000
38520.860,38967.230,39773.960,38563.260,14801.980,40464.340,38558.030,140085.300,0.000
38180.730,38623.540,39422.750,38200.290,14677.800,40106.250,38219.190,138789.200,0.000
37831.220,38273.540,39062.290,37789.140,14543.570,39741.900,37870.950,137480.700,0.000
37482.710,37926.780,38702.850,37326.170,14410.050,39380.990,37523.560,136121.800,0.000
37142.200,37586.860,38352.250,36869.500,14286.310,39028.660,37187.220,134774.800,0.000
36802.360,37243.890,38001.830,36473.050,14162.140,38674.890,36852.500,133463.100,0.000
36462.160,36898.320,37650.000,36105.780,14035.080,38317.480,36515.410,132181.400,0.000
36124.130,36552.960,37298.110,35698.500,13906.210,37960.830,36174.270,130888.800,0.000
35790.470,36210.140,36949.510,35252.440,13779.220,37607.720,35833.970,129552.000,0.000
35458.070,35869.610,36604.490,34812.110,13655.070,37255.040,35499.100,128222.300,0.000
35122.490,35528.790,36258.130,34417.750,13528.960,36900.020,35164.890,126916.400,0.000
34788.580,35193.320,35914.420,34045.110,13405.970,36548.770,34833.530,125637.000,0.000
34453.320,34857.630,35569.290,33639.480,13280.960,36197.710,34498.010,124351.600,0.000
34112.580,34515.290,35217.770,33204.430,13148.990,35840.490,34155.030,123027.700,0.000
33772.170,34172.500,34866.420,32774.610,13018.560,35484.060,33815.680,121713.200,0.000
33439.510,33834.230,34522.400,32376.740,12895.280,35136.480,33486.150,120413.000,0.000
33119.660,33506.030,34191.160,31996.070,12782.700,34798.780,33168.070,119128.400,0.000
32806.280,33185.790,33865.960,31602.360,12673.660,34465.430,32852.050,117844.700,0.000
32492.110,32867.020,33539.760,31205.920,12562.230,34132.240,32533.560,116544.000,0.000
32173.860,32545.320,33210.550,30813.000,12446.790,33796.090,32211.230,115259.800,0.000
31845.490,32214.930,32871.790,30407.440,12320.070,33451.070,31876.530,113958.500,0.000
31510.280,31879.530,32527.130,29988.030,12187.260,33100.450,31537.990,112643.600,0.000
31178.270,31547.560,32185.830,29574.690,12058.330,32754.970,31206.670,111343.900,0.000
30851.210,31219.750,31849.110,29188.030,11935.100,32415.110,30882.390,110054.600,0.000
30524.240,30890.710,31511.710,28809.580,11812.390,32072.840,30558.490,108790.300,0.000
30201.200,30562.680,31175.870,28407.130,11690.820,31733.010,30235.060,107506.900,0.000
29889.250,30244.310,30851.640,27994.000,11580.280,31406.010,29924.860,106215.700,0.000
29581.540,29930.360,30533.360,27598.570,11473.620,31083.630,29620.380,104943.900,0.000
29271.630,29615.460,30213.490,27235.690,11362.400,30755.890,29311.120,103682.100,0.000
28961.240,29301.690,29893.090,26880.840,11247.900,30425.130,28996.970,102447.600,0.000
28651.240,28987.070,29570.950,26482.390,11129.140,30094.340,28675.470,101180.100,0.000
28342.420,28673.140,29250.420,26056.790,11012.890,29765.900,28357.800,99884.660,0.000
28030.470,28356.710,28927.950,25653.740,10896.330,29436.380,28044.570,98607.600,0.000
27712.150,28033.040,28597.640,25291.010,10772.960,29100.330,27727.440,97348.840,0.000
27392.340,27708.280,28264.790,24937.450,10648.770,28764.030,27408.610,96123.340,0.000
27076.450,27390.000,27936.210,24534.140,10529.130,28436.660,27091.930,94864.410,0.000
26766.230,27080.230,27615.780,24105.780,10417.620,28117.640,26785.140,93579.370,0.000
26456.600,26771.270,27297.360,23709.830,10307.040,27798.630,26481.230,92321.360,0.000
26146.130,26459.170,26978.370,23361.910,10193.430,27475.850,26174.930,91091.960,0.000
25838.410,26147.130,26662.300,23027.670,10079.380,27151.650,25868.610,89903.450,0.000
25531.380,25833.280,26344.580,22634.570,9959.575,26825.000,25554.890,88676.330,0.000
25224.130,25518.940,26025.570,22208.800,9838.589,26496.390,25240.880,87418.470,0.000
24917.160,25206.240,25707.010,21817.640,9720.708,26170.010,24932.220,86191.590,0.000
24611.170,24896.990,25390.040,21475.510,9606.263,25848.420,24629.230,84994.720,0.000
24306.810,24591.820,25075.380,21150.060,9494.652,25531.910,24330.550,83841.730,0.000
24002.140,24285.840,24758.690,20769.100,9379.692,25217.620,24026.850,82655.730,0.000
23698.370,23979.790,24443.020,20357.610,9265.661,24903.150,23724.400,81443.230,0.000
23398.170,23676.220,24132.400,19976.190,9155.690,24589.420,23426.310,80267.200,0.000
23099.690,23373.960,23825.190,19633.460,9047.002,24276.080,23130.880,79118.490,0.000
22798.630,23070.090,23516.220,19305.570,8935.493,23960.910,22835.200,78013.800,0.000
22497.640,22765.210,23203.860,18929.360,8818.612,23643.400,22530.720,76896.840,0.000
22200.380,22464.380,22894.030,18533.030,8703.946,23326.900,22227.030,75755.890,0.000
21902.010,22164.030,22585.310,18163.860,8590.780,23013.620,21927.960,74648.700,0.000
21602.850,21861.780,22277.090,17822.810,8477.724,22701.520,21632.050,73599.540,0.000
21307.920,21563.030,21972.810,17499.950,8367.418,22391.300,21339.460,72603.360,0.000
21018.680,21269.850,21672.130,17133.140,8257.738,22085.680,21043.950,71561.250,0.000
20732.110,20979.440,21374.390,16746.360,8150.468,21781.260,20751.210,70461.590,0.000
20441.330,20684.970,21073.400,16383.390,8039.952,21472.900,20458.120,69379.630,0.000
20149.690,20389.590,20772.160,16042.680,7929.260,21165.360,20167.590,68346.420,0.000
19860.490,20097.060,20474.520,15720.140,7823.841,20862.010,19883.890,67354.400,0.000
19571.520,19804.800,20176.310,15358.170,7717.573,20561.080,19597.480,66320.090,0.000
19283.840,19515.460,19880.610,14984.740,7613.395,20262.100,19314.100,65250.150,0.000
18994.450,19224.990,19584.170,14630.200,7506.847,19960.520,19027.680,64197.770,0.000
18709.170,18936.440,19290.740,14284.480,7401.024,19660.800,18741.270,63171.160,0.000
18434.100,18657.510,19006.800,13963.700,7304.052,19370.180,18465.970,62183.500,0.000
18161.530,18381.840,18723.960,13612.780,7206.534,19082.460,18189.240,61169.810,0.000
17888.100,18105.200,18440.230,13249.130,7107.594,18791.200,17912.110,60131.360,0.000
17610.980,17822.040,18151.050,12897.920,7002.400,18492.710,17629.010,59107.930,0.000
17329.050,17532.330,17855.650,12542.160,6890.378,18189.450,17338.790,58091.620,0.000
17046.900,17245.700,17563.020,12205.990,6782.290,17890.800,17053.840,57103.030,0.000
16766.350,16963.700,17273.890,11849.160,6677.261,17599.120,16771.100,56104.620,0.000
16488.600,16685.830,16989.010,11494.580,6577.029,17311.420,16496.130,55103.920,0.000
16211.980,16408.690,16705.190,11157.710,6478.152,17025.070,16224.470,54120.500,0.000
15935.760,16130.080,16420.200,10813.730,6377.783,16738.600,15952.340,53130.590,0.000
15658.330,15849.400,16132.800,10489.560,6274.821,16448.920,15680.610,52152.880,0.000
15379.980,15565.750,15841.910,10142.500,6165.794,16155.940,15401.500,51167.440,0.000
15105.650,15284.960,15555.580,9797.005,6060.202,15864.660,15125.700,50205.940,0.000
14833.810,15007.400,15272.450,9466.665,5956.441,15575.270,14850.060,49263.800,0.000
14565.300,14733.420,14992.000,9122.129,5854.014,15288.210,14574.440,48288.420,0.000
14299.080,14462.580,14715.280,8799.489,5756.295,15004.460,14305.830,47320.840,0.000
14028.960,14189.140,14435.220,8459.529,5654.734,14720.740,14032.820,46356.880,0.000
13756.310,13915.240,14154.210,8124.387,5552.661,14436.300,13761.830,45429.890,0.000
13484.820,13643.980,13874.980,7804.337,5452.371,14154.670,13493.770,44529.720,0.000
13214.490,13374.110,13597.000,7463.808,5352.607,13875.430,13226.170,43590.020,0.000
12941.120,13100.430,13316.910,7142.780,5250.838,13592.420,12958.730,42655.370,0.000
12668.810,12824.440,13035.360,6810.635,5145.206,13308.390,12685.820,41718.020,0.000
12407.690,12556.100,12763.920,6494.680,5048.124,13030.630,12422.600,40829.340,0.000
12151.410,12291.170,12496.910,6192.203,4954.096,12754.450,12161.840,39976.570,0.000
11890.750,12024.600,12225.710,5855.508,4855.547,12476.860,11896.130,39063.730,0.000
11627.360,11759.580,11954.100,5537.948,4758.441,12202.330,11635.720,38169.710,0.000
11362.100,11493.100,11680.570,5213.735,4658.375,11927.950,11371.840,37287.800,0.000
11096.180,11225.160,11407.090,4902.821,4557.651,11649.350,11107.570,36422.210,0.000
10837.200,10964.080,11140.080,4605.268,4462.825,11376.070,10847.520,35565.100,0.000
10589.750,10714.580,10883.410,4278.907,4377.708,11115.640,10597.390,34643.910,0.000
10340.480,10462.590,10625.100,3970.947,4291.300,10852.160,10349.710,33728.940,0.000
10079.020,10196.910,10353.090,3649.469,4189.637,10574.160,10084.040,32798.680,0.000
9815.260,9929.800,10080.600,3341.554,4087.946,10295.650,9819.910,31867.820,0.000
9555.386,9667.939,9813.472,3040.723,3991.791,10027.070,9563.741,30934.050,0.000
9298.553,9408.904,9548.631,2698.663,3896.395,9762.072,9308.130,29920.490,0.000
9043.878,9151.299,9286.789,2385.694,3803.266,9494.755,9056.171,28911.000,0.000
8788.533,8892.313,9023.884,2079.603,3706.841,9226.281,8798.947,27888.360,0.000
8530.910,8632.032,8759.078,1789.083,3607.532,8956.910,8540.562,26850.810,0.000
8272.717,8371.757,8492.107,1492.822,3504.250,8687.464,8278.520,25828.840,0.000
8022.359,8119.239,8231.380,1150.179,3405.551,8425.148,8020.557,24776.490,0.000
7781.679,7876.413,7981.692,847.266,3318.796,8170.733,7776.776,23754.060,0.000
7542.151,7633.239,7732.532,558.280,3231.798,7915.612,7530.387,22773.700,0.000
7299.205,7386.833,7480.751,285.671,3143.168,7655.881,7283.786,21843.090,0.000
7049.439,7134.990,7221.806,4.144,3047.816,7391.085,7030.778,20924.720,0.000
6794.950,6877.237,6957.308,-339.768,2945.698,7122.549,6770.856,19944.900,0.000
6541.546,6618.920,6696.191,-656.936,2846.706,6854.594,6518.565,18975.900,0.000
6290.375,6363.200,6437.599,-953.396,2748.921,6590.737,6269.149,18029.630,0.000
6044.158,6114.172,6184.332,-1217.600,2657.142,6332.834,6029.877,17111.830,0.000
5798.701,5865.983,5930.211,-1487.256,2563.426,6074.972,5787.118,16209.740,0.000
5551.961,5616.642,5673.464,-1822.024,2465.709,5816.349,5536.958,15285.170,0.000
5310.966,5375.354,5425.095,-2122.203,2377.554,5566.520,5300.565,14397.230,0.000
5073.367,5137.371,5179.861,-2401.539,2290.234,5321.006,5065.453,13522.650,0.000
4834.374,4896.497,4933.125,-2660.697,2200.081,5070.677,4828.161,12685.570,0.000
4593.151,4652.717,4683.943,-2929.136,2106.641,4817.137,4585.617,11861.550,0.000
4349.469,4406.683,4431.834,-3264.334,2009.905,4561.605,4337.399,10963.450,0.000
4103.989,4160.144,4179.973,-3572.897,1915.700,4304.726,4093.606,10076.290,0.000
3864.082,3918.795,3933.694,-3855.343,1826.671,4054.434,3853.520,9203.524,0.000
3633.508,3684.929,3696.535,-4102.365,1746.604,3811.486,3625.602,8368.807,0.000
3399.753,3445.793,3453.934,-4359.733,1659.968,3564.197,3392.078,7551.326,0.000
3161.542,3201.346,3204.496,-4692.442,1564.664,3311.208,3147.682,6667.402,0.000
2924.371,2957.672,2956.982,-5001.311,1471.195,3056.270,2907.799,5816.785,0.000
2688.872,2715.729,2710.911,-5288.600,1377.511,2803.886,2668.142,4976.272,0.000
2460.274,2484.339,2473.540,-5538.817,1292.672,2562.178,2440.719,4150.327,0.000
2233.610,2256.492,2238.698,-5788.356,1209.134,2325.277,2214.449,3351.024,0.000
2006.519,2025.854,2002.834,-6104.360,1123.098,2087.143,1982.629,2505.298,0.000
1782.762,1798.595,1771.201,-6392.364,1043.231,1851.043,1759.078,1696.154,0.000
1554.642,1567.945,1533.255,-6668.231,957.095,1611.797,1530.355,898.370,0.000
1322.339,1333.462,1291.347,-6919.492,867.385,1368.129,1301.999,128.269,0.000
1096.584,1103.786,1055.988,-7161.480,782.424,1129.406,1076.686,-599.363,0.000
879.845,880.195,828.884,-7457.715,702.980,897.418,853.317,-1395.143,0.000
663.189,656.710,603.744,-7726.199,625.837,663.297,634.439,-2194.370,0.000
440.355,426.869,372.080,-7979.497,540.787,422.148,406.481,-2973.602,0.000
220.129,200.197,143.347,-8201.832,458.865,184.228,184.102,-3737.455,0.000
6.106,-18.332,-80.266,-8420.566,382.250,-44.040,-32.724,-4487.717,0.000
-205.239,-234.342,-304.090,-8704.341,304.597,-268.356,-250.837,-5262.414,0.000
-413.172,-448.489,-526.113,-8961.414,229.514,-492.281,-462.194,-6015.022,0.000
-622.598,-667.920,-752.333,-9205.914,149.945,-721.058,-679.719,-6777.883,0.000
-837.633,-893.729,-982.606,-9432.985,67.688,-956.301,-899.950,-7541.078,0.000
-1057.932,-1120.107,-1214.490,-9668.395,-17.304,-1191.927,-1125.153,-8296.385,0.000
-1280.646,-1344.836,-1445.066,-9974.209,-103.897,-1424.314,-1352.968,-9090.162,0.000
-1496.682,-1560.766,-1665.164,-10250.040,-180.967,-1648.513,-1565.764,-9859.514,0.000
-1699.994,-1764.874,-1873.632,-10499.910,-249.580,-1862.195,-1770.328,-10623.840,0.000
-1898.746,-1966.771,-2079.024,-10723.380,-315.598,-2076.189,-1971.630,-11385.410,0.000
-2107.610,-2180.791,-2297.496,-10957.000,-394.358,-2302.048,-2186.435,-12136.780,0.000
-2324.064,-2403.037,-2525.820,-11259.880,-483.115,-2534.540,-2411.759,-12912.180,0.000
-2535.545,-2618.726,-2746.896,-11526.390,-562.665,-2760.382,-2624.438,-13650.660,0.000
-2742.315,-2827.457,-2961.887,-11768.800,-635.458,-2975.415,-2830.014,-14381.290,0.000
-2946.659,-3030.936,-3171.743,-11985.860,-701.328,-3183.179,-3025.404,-15094.290,0.000
-3154.521,-3238.814,-3383.757,-12200.630,-770.608,-3395.126,-3226.958,-15787.390,0.000
-3377.374,-3463.737,-3610.959,-12486.250,-858.339,-3623.861,-3449.163,-16539.750,0.000
-3613.694,-3700.254,-3850.383,-12763.650,-958.567,-3867.318,-3678.636,-17296.880,0.000
-3846.189,-3931.896,-4086.980,-13031.420,-1057.146,-4108.020,-3908.081,-18038.600,0.000
-4061.035,-4145.902,-4305.637,-13260.810,-1137.990,-4332.493,-4118.337,-18742.300,0.000
-4266.890,-4351.980,-4516.983,-13474.460,-1213.351,-4548.547,-4321.871,-19419.590,0.000
-4467.085,-4553.594,-4725.772,-13734.970,-1287.067,-4758.999,-4524.288,-20119.470,0.000
-4657.729,-4746.155,-4924.064,-13954.500,-1347.561,-4959.993,-4711.204,-20787.270,0.000
-4857.698,-4951.197,-5131.658,-14178.170,-1418.189,-5170.164,-4910.211,-21462.880,0.000
-5077.552,-5176.970,-5357.935,-14412.810,-1508.078,-5399.497,-5124.314,-22143.810,0.000
-5297.553,-5399.944,-5583.322,-14643.380,-1598.144,-5626.846,-5338.172,-22809.680,0.000
-5503.802,-5605.885,-5794.489,-14907.180,-1675.602,-5840.187,-5543.606,-23486.590,0.000
-5701.625,-5801.622,-5995.142,-15133.790,-1743.011,-6047.374,-5738.359,-24118.720,0.000
-5900.651,-5996.734,-6196.846,-15362.440,-1813.771,-6254.175,-5938.971,-24765.090,0.000
-6107.307,-6197.708,-6405.642,-15587.440,-1890.092,-6465.817,-6141.404,-25413.150,0.000
-6306.636,-6396.850,-6610.321,-15801.180,-1962.287,-6674.581,-6338.991,-26048.370,0.000
-6486.069,-6581.307,-6798.120,-16045.440,-2019.122,-6868.187,-6525.005,-26733.060,0.000
-6673.303,-6772.567,-6991.521,-16264.190,-2079.361,-7065.249,-6711.533,-27380.770,0.000
-6877.868,-6981.628,-7204.032,-16507.530,-2159.626,-7274.262,-6917.475,-28034.760,0.000
-7074.359,-7180.694,-7409.651,-16748.750,-2234.092,-7477.381,-7115.959,-28697.000,0.000
-7267.444,-7373.546,-7610.775,-16981.200,-2306.031,-7680.820,-7312.886,-29352.110,0.000
-7474.005,-7582.599,-7823.590,-17266.610,-2391.757,-7898.985,-7522.882,-30069.300,0.000
-7682.145,-7797.450,-8035.687,-17517.130,-2477.771,-8121.962,-7729.158,-30743.510,0.000
-7877.320,-7998.800,-8235.302,-17747.090,-2553.838,-8332.774,-7928.823,-31402.070,0.000
-8070.051,-8189.148,-8430.014,-17953.260,-2621.514,-8532.534,-8116.840,-32055.890,0.000
-8267.044,-8380.088,-8629.720,-18145.600,-2691.968,-8729.779,-8304.449,-32680.130,0.000
-8455.005,-8566.327,-8824.747,-18372.210,-2759.818,-8921.487,-8490.291,-33336.620,0.000
-8634.568,-8747.292,-9013.395,-18561.350,-2821.532,-9110.815,-8667.057,-33937.660,0.000
-8813.834,-8932.029,-9204.364,-18754.000,-2887.636,-9304.668,-8850.771,-34522.220,0.000
-8985.127,-9112.165,-9385.370,-18929.280,-2944.366,-9494.416,-9026.373,-35092.210,0.000
-9155.947,-9292.788,-9564.426,-19085.860,-3000.636,-9683.411,-9203.112,-35624.890,0.000
-9348.610,-9490.771,-9765.632,-19306.780,-3081.182,-9889.492,-9403.046,-36201.830,0.000
-9554.377,-9694.467,-9976.797,-19523.510,-3169.862,-10102.590,-9604.728,-36734.780,0.000
-9745.813,-9885.558,-10172.850,-19739.960,-3242.536,-10299.440,-9791.954,-37252.060,0.000
-9928.004,-10070.590,-10359.110,-19938.530,-3304.372,-10488.680,-9967.533,-37767.740,0.000
-10126.730,-10270.710,-10563.260,-20136.200,-3384.803,-10692.990,-10160.060,-38267.000,0.000
-10328.140,-10472.530,-10771.180,-20378.920,-3469.913,-10899.030,-10358.110,-38812.860,0.000
-10509.060,-10652.600,-10957.040,-20579.040,-3531.969,-11086.610,-10532.680,-39319.820,0.000
-10678.070,-10823.190,-11134.130,-20783.610,-3587.753,-11265.360,-10704.430,-39837.080,0.000
-10845.400,-10997.300,-11311.820,-20986.690,-3646.162,-11449.050,-10878.390,-40363.400,0.000
-11018.580,-11181.020,-11497.510,-21182.190,-3715.843,-11644.620,-11066.330,-40865.650,0.000
-11192.160,-11364.900,-11684.110,-21414.930,-3788.782,-11839.990,-11260.130,-41421.950,0.000
-11358.770,-11538.160,-11859.640,-21602.870,-3848.615,-12023.660,-11435.370,-41952.710,0.000
-11531.220,-11715.890,-12040.390,-21799.430,-3914.351,-12210.210,-11614.910,-42498.610,0.000
-11712.780,-11900.300,-12228.450,-22000.140,-3986.369,-12404.580,-11797.530,-43055.860,0.000
-11889.350,-12077.200,-12409.450,-22170.950,-4049.697,-12590.580,-11972.250,-43580.400,0.000
-12057.860,-12247.960,-12584.400,-22364.590,-4106.680,-12767.610,-12142.960,-44158.940,0.000
-12231.370,-12424.580,-12765.920,-22538.880,-4169.252,-12950.160,-12314.670,-44732.540,0.000
-12413.420,-12608.660,-12955.670,-22731.390,-4241.526,-13137.800,-12496.090,-45330.270,0.000
-12599.700,-12795.270,-13146.500,-22920.870,-4314.802,-13327.280,-12676.530,-45941.020,0.000
-12784.320,-12980.830,-13335.590,-23088.840,-4388.442,-13518.090,-12858.240,-46524.260,0.000
-12951.930,-13152.260,-13508.100,-23269.790,-4448.917,-13697.910,-13030.480,-47145.940,0.000
-13110.130,-13313.280,-13668.960,-23408.040,-4497.453,-13868.850,-13188.480,-47740.750,0.000
-13279.330,-13483.720,-13843.620,-23578.380,-4561.380,-14047.690,-13362.530,-48367.710,0.000
-13455.030,-13659.850,-14025.090,-23766.940,-4631.535,-14232.240,-13540.790,-49027.890,0.000
-13629.030,-13833.550,-14202.260,-23934.120,-4696.167,-14411.410,-13713.180,-49674.310,0.000
-13801.700,-14006.150,-14378.550,-24134.570,-4759.872,-14586.050,-13884.040,-50381.890,0.000
-13977.260,-14180.570,-14558.220,-24317.050,-4824.861,-14764.310,-14050.860,-51075.970,0.000
-14155.290,-14356.880,-14741.380,-24515.600,-4894.237,-14945.700,-14223.760,-51783.020,0.000
-14332.800,-14532.020,-14921.870,-24712.170,-4961.074,-15126.160,-14393.700,-52504.540,0.000
-14513.180,-14709.490,-15103.950,-24895.040,-5029.778,-15307.630,-14566.550,-53213.500,0.000
-14688.430,-14883.390,-15283.210,-25111.680,-5098.023,-15486.930,-14741.490,-53976.970,0.000
-14853.500,-15050.380,-15453.410,-25294.020,-5158.920,-15664.120,-14907.400,-54713.750,0.000
-15020.340,-15221.380,-15626.470,-25490.290,-5225.403,-15844.940,-15080.680,-55461.590,0.000
-15187.140,-15389.860,-15797.750,-25685.320,-5289.171,-16021.070,-15246.660,-56208.150,0.000
-15346.790,-15548.320,-15960.480,-25849.530,-5343.785,-16185.160,-15401.250,-56906.640,0.000
-15504.110,-15702.420,-16121.040,-26040.650,-5397.286,-16344.550,-15556.440,-57643.400,0.000
-15669.140,-15862.630,-16287.990,-26208.380,-5455.255,-16511.090,-15712.700,-58351.610,0.000
-15842.080,-16035.030,-16464.240,-26389.040,-5522.582,-16688.040,-15880.070,-59052.230,0.000
-16006.900,-16203.020,-16633.120,-26559.160,-5583.026,-16861.600,-16039.880,-59730.980,0.000
-16165.170,-16363.630,-16796.560,-26706.160,-5639.463,-17027.810,-16195.370,-60354.570,0.000
-16330.310,-16531.000,-16967.790,-26894.770,-5704.690,-17198.680,-16361.640,-61011.740,0.000
-16502.040,-16704.500,-17143.520,-27063.630,-5773.497,-17376.540,-16528.670,-61635.350,0.000
-16673.320,-16877.670,-17319.740,-27245.630,-5845.655,-17553.750,-16697.780,-62248.760,0.000
-16833.340,-17039.450,-17484.790,-27418.750,-5907.602,-17720.650,-16853.390,-62838.500,0.000
-16984.820,-17190.720,-17641.010,-27566.700,-5960.720,-17878.730,-17001.570,-63378.550,0.000
-17142.140,-17348.320,-17803.190,-27750.650,-6020.514,-18043.210,-17160.270,-63966.010,0.000
-17306.830,-17514.980,-17971.430,-27909.600,-6085.102,-18217.070,-17322.970,-64530.370,0.000
-17466.850,-17676.480,-18137.420,-28083.490,-6149.077,-18385.850,-17487.260,-65097.370,0.000
-17615.120,-17827.150,-18292.990,-28259.590,-6203.085,-18544.660,-17638.840,-65665.450,0.000
-17763.340,-17981.370,-18448.800,-28419.060,-6257.673,-18704.860,-17790.200,-66205.110,0.000
-17920.740,-18144.090,-18612.610,-28614.310,-6321.175,-18871.500,-17951.800,-66800.220,0.000
-18082.110,-18305.330,-18775.980,-28781.730,-6382.972,-19037.260,-18108.010,-67380.210,0.000
-18239.840,-18459.690,-18935.740,-28962.930,-6442.889,-19196.470,-18264.610,-67977.800,0.000
-18391.210,-18607.720,-19089.620,-29146.060,-6497.296,-19352.400,-18415.260,-68589.610,0.000
-18540.140,-18757.230,-19242.380,-29310.590,-6551.054,-19510.490,-18564.260,-69175.950,0.000
-18684.460,-18906.070,-19392.960,-29507.610,-6604.857,-19667.120,-18713.590,-69812.040,0.000
-18822.010,-19047.120,-19535.990,-29671.720,-6650.736,-19817.040,-18852.210,-70422.010,0.000
-18958.370,-19186.140,-19678.400,-29842.490,-6696.157,-19962.960,-18992.970,-71039.160,0.000
-19102.830,-19333.570,-19827.940,-30017.980,-6747.662,-20116.170,-19137.240,-71670.710,0.000
-19260.720,-19495.500,-19991.730,-30188.320,-6814.475,-20283.700,-19294.490,-72277.570,0.000
-19417.910,-19657.560,-20156.670,-30393.960,-6884.129,-20451.350,-19455.880,-72920.750,0.000
-19565.050,-19806.410,-20308.380,-30558.780,-6938.611,-20606.350,-19599.720,-73520.830,0.000
-19709.910,-19950.410,-20456.710,-30731.880,-6990.487,-20754.970,-19743.420,-74122.470,0.000
-19855.760,-20094.970,-20604.960,-30910.840,-7042.125,-20904.310,-19886.720,-74733.400,0.000
-20002.160,-20239.950,-20753.640,-31070.800,-7094.713,-21054.380,-20031.290,-75296.460,0.000
-20147.270,-20384.260,-20903.230,-31260.750,-7150.354,-21203.800,-20179.230,-75879.410,0.000
-20293.010,-20530.440,-21053.290,-31423.330,-7205.926,-21355.340,-20321.760,-76432.910,0.000
-20438.430,-20679.240,-21204.540,-31601.460,-7264.010,-21508.210,-20466.770,-76989.700,0.000
-20575.040,-20821.100,-21347.580,-31776.870,-7313.359,-21654.580,-20601.190,-77545.220,0.000
-20709.610,-20960.170,-21488.730,-31929.160,-7360.314,-21797.870,-20734.110,-78057.000,0.000
-20850.450,-21102.710,-21635.730,-32119.700,-7414.890,-21945.370,-20878.200,-78594.490,0.000
-20993.100,-21245.440,-21782.040,-32283.870,-7469.347,-22094.860,-21020.420,-79111.100,0.000
-21135.160,-21388.580,-21927.790,-32459.200,-7525.280,-22242.670,-21165.600,-79631.380,0.000
-21279.130,-21531.620,-22073.420,-32642.170,-7580.408,-22389.830,-21307.290,-80162.000,0.000
-21426.330,-21676.170,-22221.420,-32807.620,-7637.307,-22539.340,-21451.050,-80670.230,0.000
-21567.430,-21816.180,-22364.580,-32993.570,-7689.815,-22684.300,-21593.470,-81192.420,0.000
-21700.520,-21949.650,-22498.950,-33140.370,-7732.441,-22821.980,-21721.030,-81678.250,0.000
-21837.900,-22089.500,-22639.810,-33306.020,-7784.133,-22964.170,-21856.510,-82166.030,0.000
-21976.600,-22232.180,-22783.200,-33479.340,-7839.065,-23111.200,-21994.050,-82655.760,0.000
-22109.790,-22369.890,-22922.170,-33622.610,-7889.067,-23254.950,-22127.970,-83113.700,0.000
-22242.680,-22505.500,-23062.340,-33794.650,-7940.831,-23396.670,-22265.740,-83587.300,0.000
-22377.170,-22638.820,-23201.760,-33945.830,-7991.376,-23537.620,-22399.420,-84036.420,0.000
-22508.110,-22767.900,-23337.040,-34107.390,-8039.331,-23673.490,-22533.180,-84496.060,0.000
-22634.840,-22893.940,-23466.950,-34262.340,-8080.703,-23805.440,-22659.370,-84955.550,0.000
-22767.090,-23026.600,-23601.950,-34398.770,-8127.242,-23942.280,-22788.380,-85391.130,0.000
-22898.460,-23160.370,-23736.670,-34566.370,-8176.563,-24078.670,-22919.680,-85855.520,0.000
-23025.540,-23290.480,-23865.670,-34700.130,-8220.009,-24213.460,-23043.130,-86291.880,0.000
-23161.800,-23430.140,-24006.590,-34860.940,-8277.484,-24358.660,-23183.860,-86743.410,0.000
-23296.620,-23568.910,-24146.340,-35031.820,-8334.813,-24503.120,-23323.010,-87199.270,0.000
-23427.750,-23700.730,-24279.240,-35172.180,-8383.593,-24639.860,-23451.700,-87621.980,0.000
-23563.290,-23832.770,-24416.000,-35343.320,-8435.791,-24776.270,-23583.420,-88074.480,0.000
-23693.350,-23960.300,-24547.930,-35485.640,-8483.729,-24909.720,-23709.130,-88495.270,0.000
-23809.520,-24077.910,-24668.220,-35627.320,-8521.625,-25032.960,-23830.040,-88921.670,0.000
-23918.190,-24188.940,-24781.300,-35762.770,-8551.300,-25149.980,-23940.810,-89353.110,0.000
-24039.990,-24314.140,-24910.280,-35893.770,-8598.799,-25280.400,-24064.080,-89760.200,0.000
-24172.990,-24453.670,-25052.710,-36067.860,-8662.021,-25421.950,-24202.140,-90206.630,0.000
-24300.810,-24587.830,-25186.430,-36202.130,-8713.838,-25557.780,-24327.370,-90615.890,0.000
-24425.530,-24714.490,-25315.390,-36343.910,-8760.703,-25688.220,-24451.590,-91030.420,0.000
-24555.060,-24838.690,-25445.790,-36497.600,-8807.652,-25818.390,-24574.880,-91456.580,0.000
-24677.720,-24955.460,-25566.640,-36622.650,-8845.754,-25940.210,-24690.220,-91845.190,0.000
-24781.760,-25058.730,-25669.710,-36753.950,-8869.684,-26048.020,-24795.480,-92268.160,0.000
-24884.890,-25162.980,-25775.990,-36862.750,-8896.318,-26158.120,-24897.780,-92660.300,0.000
-24999.460,-25279.820,-25896.950,-37002.000,-8937.168,-26279.220,-25014.130,-93053.980,0.000
-25126.020,-25406.380,-26023.920,-37144.430,-8981.361,-26408.940,-25134.150,-93464.040,0.000
-25259.470,-25541.200,-26160.260,-37273.640,-9037.556,-26547.420,-25264.750,-93856.810,0.000
-25391.990,-25679.090,-26302.990,-37445.070,-9106.404,-26690.420,-25408.030,-94295.530,0.000
-25525.710,-25815.490,-26443.610,-37592.600,-9169.436,-26831.180,-25541.710,-94699.660,0.000
-25653.310,-25946.170,-26577.070,-37752.140,-9222.601,-26963.200,-25668.600,-95106.180,0.000
-25765.020,-26061.760,-26695.640,-37905.560,-9262.986,-27083.660,-25783.560,-95520.670,0.000
-25870.220,-26165.040,-26804.380,-38021.170,-9296.244,-27196.920,-25891.050,-95889.950,0.000
-25974.930,-26263.700,-26905.720,-38144.520,-9321.865,-27304.840,-25993.890,-96285.700,0.000
-26085.330,-26370.210,-27011.130,-38234.840,-9348.998,-27416.110,-26094.090,-96647.310,0.000
-26215.430,-26502.230,-27146.710,-38376.340,-9410.829,-27549.540,-26225.080,-97023.290,0.000
-26344.640,-26637.280,-27285.690,-38540.090,-9479.127,-27688.970,-26361.670,-97416.140,0.000
-26457.560,-26755.510,-27405.690,-38658.030,-9525.358,-27811.650,-26478.820,-97766.570,0.000
-26570.700,-26873.000,-27527.310,-38801.450,-9569.805,-27930.090,-26593.670,-98152.650,0.000
-26680.970,-26988.170,-27644.290,-38914.730,-9609.191,-28047.590,-26702.000,-98509.960,0.000
-26771.410,-27086.040,-27736.550,-39006.560,-9629.312,-28150.120,-26801.080,-98867.100,0.000
-26868.880,-27186.240,-27832.790,-39102.160,-9653.725,-28256.600,-26901.920,-99242.070,0.000
-26994.210,-27304.730,-27960.300,-39224.120,-9705.963,-28380.940,-27019.660,-99595.530,0.000
-27107.990,-27411.230,-28075.110,-39372.630,-9744.126,-28491.180,-27125.560,-99983.630,0.000
-27223.170,-27522.300,-28185.770,-39478.330,-9777.961,-28604.220,-27227.470,-100350.600,0.000
-27367.650,-27666.750,-28334.060,-39635.320,-9856.976,-28750.970,-27372.260,-100749.800,0.000
-27502.340,-27802.690,-28478.690,-39808.210,-9935.179,-28892.700,-27513.730,-101166.500,0.000
-27599.940,-27903.300,-28583.010,-39919.030,-9970.209,-28999.310,-27615.660,-101534.700,0.000
-27680.720,-27992.540,-28670.150,-40037.630,-9988.958,-29094.000,-27705.560,-101940.400,0.000
-27783.260,-28101.010,-28779.850,-40158.650,-10030.050,-29209.190,-27812.160,-102337.000,0.000
-27904.460,-28222.890,-28908.080,-40317.220,-10089.490,-29336.390,-27937.160,-102754.100,0.000
-28007.830,-28327.190,-29012.870,-40445.590,-10123.090,-29444.830,-28037.820,-103175.400,0.000
-28101.790,-28423.070,-29106.140,-40520.310,-10144.800,-29543.050,-28126.200,-103549.700,0.000
-28212.850,-28532.550,-29220.690,-40652.690,-10190.080,-29653.660,-28235.680,-103964.600,0.000
-28327.300,-28640.410,-29335.950,-40775.610,-10234.370,-29765.100,-28342.550,-104353.000,0.000
-28429.380,-28736.710,-29436.860,-40892.750,-10265.040,-29866.700,-28442.610,-104748.200,0.000
-28530.610,-28836.740,-29538.500,-41007.010,-10297.550,-29972.040,-28542.580,-105169.000,0.000
-28646.650,-28955.540,-29658.910,-41118.570,-10349.720,-30093.220,-28656.490,-105571.800,0.000
-28755.680,-29070.830,-29777.190,-41269.360,-10402.470,-30210.690,-28771.670,-106011.200,0.000
-28837.950,-29158.730,-29866.700,-41368.510,-10427.740,-30305.010,-28859.340,-106400.100,0.000
-28914.650,-29237.740,-29947.190,-41463.840,-10444.640,-30388.990,-28939.780,-106781.900,0.000
-28998.420,-29323.380,-30032.510,-41569.900,-10464.600,-30477.890,-29021.030,-107191.300,0.000
-29098.240,-29427.300,-30135.380,-41670.040,-10502.980,-30585.470,-29121.300,-107596.300,0.000
-29215.270,-29549.600,-30258.440,-41817.100,-10562.750,-30710.950,-29244.120,-108056.000,0.000
-29330.760,-29665.890,-30378.630,-41937.790,-10615.940,-30831.110,-29354.980,-108474.900,0.000
-29435.630,-29763.880,-30486.070,-42058.990,-10655.610,-30932.020,-29453.180,-108871.800,0.000
-29532.400,-29851.730,-30581.560,-42171.390,-10683.610,-31022.090,-29541.050,-109269.900,0.000
-29626.940,-29943.460,-30673.890,-42251.490,-10710.250,-31116.260,-29631.860,-109625.100,0.000
-29721.890,-30040.690,-30770.850,-42368.660,-10744.950,-31217.710,-29734.680,-110003.800,0.000
-29819.350,-30141.420,-30873.370,-42476.160,-10785.210,-31323.630,-29836.590,-110362.800,0.000
-29919.340,-30246.570,-30979.640,-42599.120,-10829.940,-31431.550,-29940.240,-110726.500,0.000
-30012.930,-30346.130,-31078.200,-42718.230,-10867.370,-31534.960,-30034.710,-111093.700,0.000
-30100.820,-30438.910,-31171.170,-42807.860,-10900.770,-31632.940,-30125.960,-111419.500,0.000
-30189.800,-30529.980,-31264.250,-42922.390,-10934.900,-31729.290,-30220.640,-111763.800,0.000
-30283.930,-30622.260,-31359.710,-43011.770,-10967.980,-31827.250,-30310.560,-112089.800,0.000
-30386.370,-30722.020,-31464.480,-43121.140,-11009.820,-31929.650,-30409.990,-112430.900,0.000
-30490.970,-30825.470,-31571.630,-43241.000,-11054.050,-32034.800,-30510.070,-112775.700,0.000
-30590.960,-30927.310,-31675.890,-43339.740,-11097.180,-32138.570,-30608.200,-113073.300,0.000
-30681.520,-31021.800,-31771.420,-43461.490,-11134.270,-32235.360,-30704.470,-113383.800,0.000
-30765.410,-31108.610,-31858.920,-43549.930,-11163.440,-32328.550,-30791.280,-113669.100,0.000
-30846.940,-31194.540,-31945.900,-43643.360,-11193.330,-32421.940,-30880.620,-113963.500,0.000
-30927.340,-31279.490,-32029.690,-43732.960,-11217.270,-32512.110,-30962.580,-114258.000,0.000
-31018.410,-31371.430,-32123.140,-43811.440,-11249.390,-32605.750,-31048.250,-114521.500,0.000
-31115.800,-31467.350,-32223.710,-43933.980,-11290.690,-32701.110,-31142.640,-114816.000,0.000
-31208.870,-31557.030,-32316.830,-44023.120,-11323.600,-32791.420,-31228.400,-115069.000,0.000
-31302.360,-31650.040,-32413.890,-44122.210,-11362.270,-32885.940,-31323.570,-115326.600,0.000
-31390.310,-31741.920,-32508.630,-44227.710,-11398.810,-32981.540,-31415.810,-115595.400,0.000
-31472.260,-31827.130,-32595.210,-44303.810,-11426.080,-33071.330,-31498.930,-115828.400,0.000
-31558.960,-31915.290,-32685.750,-44413.260,-11459.240,-33164.020,-31588.910,-116105.600,0.000
-31648.030,-32004.770,-32777.070,-44499.120,-11493.930,-33258.400,-31676.180,-116351.900,0.000
-31729.860,-32088.100,-32862.130,-44588.200,-11524.130,-33344.140,-31761.360,-116593.300,0.000
-31806.670,-32166.290,-32942.500,-44680.070,-11549.270,-33424.070,-31840.250,-116847.800,0.000
-31897.030,-32254.580,-33034.590,-44762.050,-11584.740,-33513.660,-31925.870,-117080.300,0.000
-31994.950,-32348.950,-33132.560,-44879.090,-11625.830,-33609.040,-32017.650,-117362.800,0.000
-32076.770,-32429.640,-33212.860,-44947.380,-11647.880,-33692.430,-32090.290,-117605.600,0.000
-32154.510,-32509.050,-33292.330,-45019.040,-11670.870,-33774.130,-32166.910,-117841.900,0.000
-32243.670,-32599.110,-33386.350,-45120.880,-11710.390,-33868.230,-32256.720,-118101.900,0.000
-32330.030,-32687.280,-33478.820,-45207.900,-11750.370,-33961.630,-32345.990,-118331.400,0.000
-32401.210,-32763.750,-33555.920,-45306.000,-11775.620,-34041.940,-32424.770,-118596.000,0.000
-32470.810,-32837.460,-33629.470,-45372.740,-11794.150,-34119.420,-32494.060,-118831.600,0.000
-32554.570,-32921.610,-33717.110,-45466.460,-11827.290,-34205.840,-32577.710,-119069.400,0.000
-32645.120,-33008.290,-33807.100,-45573.610,-11863.170,-34293.950,-32661.570,-119320.400,0.000
-32731.730,-33089.440,-33889.640,-45650.320,-11891.420,-34375.860,-32736.780,-119534.500,0.000
-32812.410,-33166.960,-33968.230,-45748.650,-11917.450,-34454.810,-32812.930,-119785.700,0.000
-32890.860,-33243.650,-34045.940,-45818.770,-11943.330,-34535.860,-32888.180,-120008.100,0.000
-32968.450,-33321.890,-34125.640,-45900.210,-11973.720,-34617.420,-32970.170,-120229.100,0.000
-33040.220,-33396.120,-34199.940,-45985.470,-11998.960,-34694.660,-33044.860,-120457.100,0.000
-33108.980,-33466.860,-34271.310,-46043.720,-12021.790,-34770.610,-33116.640,-120644.100,0.000
-33179.410,-33539.020,-34346.180,-46131.720,-12048.380,-34847.550,-33193.160,-120867.400,0.000
-33256.280,-33618.200,-34428.410,-46205.740,-12079.400,-34929.040,-33266.980,-121065.000,0.000
-33340.150,-33706.190,-34520.480,-46305.190,-12122.490,-35017.620,-33352.370,-121266.900,0.000
-33418.650,-33787.710,-34604.840,-46405.720,-12158.640,-35101.580,-33432.260,-121476.900,0.000
-33489.600,-33858.300,-34677.290,-46466.590,-12181.950,-35176.600,-33502.570,-121644.200,0.000
-33560.860,-33928.310,-34749.340,-46553.920,-12207.140,-35252.850,-33578.300,-121851.000,0.000
-33633.580,-34000.450,-34821.410,-46617.790,-12233.190,-35333.000,-33651.400,-122029.400,0.000
-33706.440,-34074.410,-34895.380,-46693.410,-12262.190,-35412.450,-33728.260,-122207.900,0.000
-33779.840,-34152.180,-34972.780,-46781.530,-12293.600,-35492.890,-33805.030,-122405.600,0.000
-33850.740,-34229.970,-35049.520,-46845.360,-12323.850,-35572.130,-33879.210,-122566.800,0.000
-33910.420,-34294.690,-35114.490,-46923.610,-12342.980,-35638.240,-33945.000,-122758.700,0.000
-33968.610,-34355.330,-35175.870,-46971.000,-12357.380,-35700.870,-34002.730,-122925.200,0.000
-34039.590,-34429.180,-35252.240,-47045.090,-12388.980,-35777.120,-34078.660,-123106.100,0.000
-34109.810,-34500.610,-35325.800,-47129.960,-12418.100,-35854.050,-34153.460,-123314.600,0.000
-34175.890,-34564.450,-35391.370,-47184.770,-12438.350,-35923.610,-34219.540,-123501.400,0.000
-34247.860,-34633.700,-35463.380,-47273.040,-12465.250,-35995.390,-34290.460,-123741.200,0.000
-34320.880,-34707.110,-35536.840,-47334.560,-12491.810,-36070.540,-34356.040,-123960.800,0.000
-34389.680,-34779.840,-35607.750,-47401.920,-12516.780,-36143.800,-34422.970,-124186.300,0.000
-34457.380,-34850.570,-35677.620,-47481.790,-12541.270,-36215.700,-34488.890,-124433.900,0.000
-34530.830,-34925.650,-35754.290,-47551.300,-12574.520,-36293.270,-34562.270,-124653.800,0.000
-34603.380,-35001.230,-35831.110,-47653.690,-12611.310,-36371.290,-34641.700,-124918.900,0.000
-34663.670,-35064.140,-35892.360,-47714.190,-12631.260,-36437.770,-34703.200,-125159.100,0.000
-34721.450,-35122.200,-35950.900,-47777.110,-12647.520,-36499.590,-34763.090,-125406.000,0.000
-34785.470,-35183.540,-36015.430,-47854.140,-12667.620,-36565.300,-34823.730,-125677.500,0.000
-34849.020,-35245.240,-36079.590,-47905.870,-12686.460,-36630.580,-34881.570,-125914.300,0.000
-34911.480,-35310.390,-36145.080,-47986.890,-12708.700,-36697.270,-34946.050,-126192.900,0.000
-34978.150,-35380.550,-36214.540,-48051.250,-12735.260,-36769.190,-35012.620,-126455.500,0.000
-35040.220,-35445.850,-36279.590,-48122.710,-12760.110,-36836.540,-35079.320,-126722.000,0.000
-35089.930,-35498.730,-36331.620,-48188.640,-12772.510,-36892.980,-35131.900,-126998.300,0.000
-35144.220,-35553.630,-36388.400,-48233.180,-12788.030,-36951.310,-35185.310,-127235.300,0.000
-35214.160,-35620.880,-36461.800,-48322.610,-12820.050,-37020.630,-35255.800,-127514.300,0.000
-35290.320,-35693.140,-36539.150,-48392.260,-12854.890,-37095.010,-35326.520,-127772.600,0.000
-35359.850,-35760.730,-36609.600,-48463.150,-12883.710,-37163.800,-35394.750,-128030.700,0.000
-35415.820,-35815.040,-36665.720,-48527.200,-12897.570,-37220.170,-35446.640,-128296.400,0.000
-35476.920,-35873.930,-36726.190,-48570.380,-12915.400,-37279.820,-35499.090,-128527.700,0.000
-35552.380,-35951.190,-36803.930,-48661.810,-12953.840,-37355.430,-35573.000,-128807.700,0.000
-35617.240,-36022.320,-36874.090,-48725.380,-12986.550,-37429.210,-35641.090,-129058.700,0.000
-35665.480,-36078.360,-36930.390,-48786.030,-13006.960,-37491.240,-35702.040,-129303.600,0.000
-35713.490,-36134.060,-36985.730,-48854.880,-13025.660,-37551.740,-35760.520,-129566.000,0.000
-35767.490,-36195.550,-37047.210,-48902.700,-13050.000,-37616.100,-35822.210,-129792.500,0.000
-35819.610,-36252.770,-37107.610,-48975.680,-13073.430,-37675.260,-35883.260,-130050.000,0.000
-35868.450,-36301.970,-37161.250,-49020.570,-13087.990,-37726.290,-35931.490,-130276.700,0.000
-35921.410,-36353.890,-37217.460,-49081.480,-13106.720,-37779.610,-35986.240,-130511.300,0.000
-35974.480,-36407.510,-37272.390,-49150.930,-13124.540,-37836.420,-36040.930,-130770.000,0.000
-36026.320,-36463.180,-37327.820,-49193.320,-13142.540,-37896.300,-36095.700,-130991.600,0.000
-36073.090,-36516.520,-37382.140,-49259.860,-13160.720,-37954.400,-36152.200,-131242.900,0.000
-36111.570,-36559.560,-37425.840,-49288.230,-13167.300,-38002.180,-36192.710,-131458.400,0.000
-36154.180,-36604.910,-37473.780,-49328.840,-13179.690,-38049.200,-36238.580,-131678.100,0.000
-36204.360,-36659.180,-37532.400,-49393.190,-13203.840,-38106.710,-36295.890,-131923.500,0.000
-36257.850,-36719.380,-37595.630,-49439.320,-13232.850,-38172.530,-36360.090,-132131.900,0.000
-36306.920,-36775.860,-37653.360,-49509.510,-13257.480,-38234.110,-36422.540,-132371.000,0.000
-36349.050,-36824.350,-37701.030,-49546.910,-13271.550,-38286.640,-36470.360,-132580.600,0.000
-36401.300,-36882.290,-37758.070,-49600.670,-13295.320,-38344.780,-36528.480,-132798.100,0.000
-36466.850,-36949.970,-37825.240,-49670.940,-13327.460,-38412.340,-36592.870,-133037.600,0.000
-36528.730,-37010.990,-37886.860,-49709.070,-13354.330,-38474.610,-36649.560,-133227.700,0.000
-36576.860,-37057.480,-37935.900,-49767.000,-13370.640,-38522.910,-36696.690,-133437.100,0.000
-36619.670,-37095.350,-37976.390,-49795.310,-13377.020,-38564.570,-36731.790,-133613.800,0.000
-36671.570,-37141.190,-38025.180,-49838.680,-13392.920,-38612.950,-36778.540,-133800.200,0.000
-36726.700,-37192.960,-38078.490,-49897.360,-13413.630,-38666.800,-36829.420,-134012.600,0.000
-36776.290,-37241.810,-38127.140,-49927.230,-13429.370,-38718.860,-36876.880,-134184.300,0.000
-36824.680,-37290.750,-38175.230,-49984.430,-13446.180,-38772.390,-36929.750,-134389.800,0.000
-36874.070,-37339.270,-38222.090,-50018.700,-13461.540,-38827.050,-36978.890,-134569.500,0.000
-36922.830,-37386.180,-38267.880,-50060.660,-13476.710,-38876.460,-37028.100,-134747.400,0.000
-36972.140,-37434.200,-38314.850,-50111.690,-13492.050,-38923.890,-37073.270,-134943.300,0.000
-37025.950,-37486.630,-38368.350,-50144.540,-13513.140,-38974.890,-37119.840,-135107.300,0.000
-37075.970,-37535.430,-38419.820,-50205.800,-13533.330,-39021.910,-37166.180,-135306.400,0.000
-37125.360,-37584.240,-38470.210,-50242.820,-13550.730,-39070.110,-37208.130,-135481.800,0.000
-37189.070,-37647.710,-38537.110,-50307.650,-13584.470,-39131.640,-37269.760,-135674.200,0.000
-37249.240,-37706.840,-38599.280,-50384.770,-13614.380,-39189.310,-37327.900,-135891.100,0.000
-37297.120,-37753.820,-38646.210,-50422.260,-13631.100,-39236.580,-37373.370,-136065.500,0.000
-37346.950,-37803.490,-38695.540,-50486.430,-13652.150,-39287.700,-37426.220,-136274.900,0.000
-37394.480,-37850.720,-38742.860,-50524.110,-13670.520,-39339.510,-37474.160,-136454.700,0.000
-37435.140,-37892.370,-38785.190,-50564.420,-13685.600,-39386.080,-37520.300,-136635.100,0.000
-37474.220,-37932.170,-38825.470,-50610.390,-13698.300,-39430.060,-37561.320,-136839.300,0.000
-37514.880,-37972.100,-38866.210,-50629.410,-13710.770,-39473.770,-37599.200,-137003.700,0.000
-37558.200,-38016.500,-38910.250,-50681.610,-13727.810,-39519.630,-37642.650,-137200.700,0.000
-37605.600,-38064.510,-38956.940,-50717.490,-13746.170,-39567.750,-37684.330,-137376.400,0.000
-37659.580,-38114.350,-39010.390,-50771.350,-13770.530,-39617.130,-37733.700,-137562.600,0.000
-37713.930,-38161.180,-39063.240,-50836.910,-13792.260,-39663.810,-37778.950,-137768.700,0.000
-37758.590,-38200.150,-39106.200,-50868.570,-13804.750,-39703.300,-37814.880,-137926.400,0.000
-37798.740,-38239.000,-39146.030,-50925.960,-13817.930,-39743.140,-37856.750,-138115.600,0.000
-37841.430,-38281.980,-39187.110,-50960.630,-13832.330,-39787.200,-37898.770,-138278.600,0.000
-37880.070,-38321.570,-39225.430,-51001.310,-13844.980,-39828.010,-37940.300,-138438.700,0.000
-37913.840,-38357.900,-39259.820,-51050.900,-13854.890,-39869.490,-37978.700,-138621.200,0.000
-37954.050,-38401.610,-39301.220,-51080.840,-13872.220,-39918.870,-38023.380,-138769.300,0.000
-37999.690,-38449.380,-39349.850,-51147.080,-13896.630,-39968.910,-38074.310,-138947.700,0.000
-38036.900,-38486.630,-39388.630,-51182.040,-13909.600,-40008.640,-38109.790,-139088.800,0.000
-38064.970,-38515.650,-39417.620,-51210.910,-13914.500,-40039.380,-38140.230,-139220.800,0.000
-38097.860,-38549.370,-39450.180,-51252.320,-13923.370,-40073.470,-38173.060,-139376.100,0.000
-38143.660,-38593.740,-39494.350,-51281.360,-13942.980,-40116.480,-38213.890,-139503.800,0.000
-38192.450,-38639.430,-39541.720,-51341.090,-13965.570,-40160.240,-38259.870,-139667.700,0.000
-38235.460,-38678.560,-39583.810,-51372.330,-13981.120,-40200.400,-38296.590,-139798.000,0.000
-38274.890,-38716.170,-39625.750,-51411.350,-13997.730,-40239.610,-38336.670,-139921.800,0.000
-38307.360,-38747.320,-39659.790,-51452.380,-14006.890,-40272.930,-38369.500,-140059.100,0.000
-38337.070,-38773.550,-39687.960,-51461.500,-14010.450,-40301.250,-38395.200,-140156.300,0.000
-38372.640,-38807.000,-39722.370,-51505.460,-14021.810,-40335.320,-38428.600,-140295.700,0.000
-38412.800,-38848.080,-39761.070,-51527.500,-14036.830,-40378.050,-38461.990,-140415.900,0.000
-38455.590,-38893.310,-39804.520,-51558.210,-14057.230,-40424.100,-38501.910,-140538.700,0.000
-38493.450,-38934.130,-39844.520,-51598.820,-14073.290,-40465.330,-38536.930,-140681.900,0.000
-38530.070,-38972.270,-39884.120,-51619.500,-14089.250,-40505.630,-38573.180,-140790.900,0.000
-38574.300,-39014.590,-39931.540,-51681.790,-14114.900,-40550.320,-38622.260,-140941.800,0.000
-38616.320,-39054.410,-39973.570,-51711.990,-14133.900,-40590.970,-38662.200,-141065.900,0.000
-38650.180,-39089.390,-40008.420,-51735.170,-14146.720,-40624.740,-38697.950,-141185.100,0.000
-38675.750,-39115.450,-40035.380,-51761.710,-14151.060,-40651.470,-38723.900,-141321.500,0.000
-38698.050,-39136.730,-40057.680,-51759.790,-14149.490,-40673.330,-38741.340,-141417.800,0.000
-38725.150,-39165.410,-40085.690,-51793.090,-14155.070,-40699.680,-38764.580,-141553.200,0.000
-38762.980,-39206.530,-40126.030,-51820.250,-14174.060,-40741.230,-38795.960,-141674.700,0.000
-38806.980,-39253.580,-40174.480,-51866.750,-14205.010,-40792.900,-38843.510,-141802.400,0.000
-38839.310,-39286.310,-40207.290,-51905.530,-14219.800,-40831.080,-38878.600,-141940.900,0.000
-38868.530,-39313.000,-40235.240,-51910.720,-14226.350,-40859.730,-38905.120,-142039.000,0.000
-38904.180,-39346.410,-40272.090,-51955.140,-14241.160,-40891.690,-38941.500,-142180.400,0.000
-38935.010,-39374.740,-40301.580,-51967.930,-14246.350,-40916.700,-38964.980,-142291.400,0.000
-38962.890,-39400.630,-40328.070,-51983.980,-14249.850,-40936.560,-38986.720,-142396.100,0.000
-38992.680,-39430.510,-40356.730,-52015.310,-14258.630,-40963.700,-39013.730,-142528.400,0.000
-39026.550,-39466.930,-40391.170,-52027.970,-14276.280,-41001.540,-39050.370,-142635.000,0.000
-39059.640,-39503.320,-40429.460,-52078.090,-14299.820,-41040.100,-39095.160,-142782.100,0.000
-39087.440,-39532.670,-40460.880,-52100.280,-14314.180,-41072.910,-39127.480,-142899.600,0.000
-39116.300,-39565.710,-40492.350,-52127.630,-14330.180,-41107.520,-39160.830,-143016.400,0.000
-39141.830,-39597.550,-40519.720,-52162.300,-14343.390,-41141.010,-39189.630,-143156.500,0.000
-39161.810,-39620.390,-40540.360,-52161.970,-14348.110,-41167.350,-39210.180,-143253.800,0.000
-39180.620,-39638.020,-40560.310,-52191.450,-14351.880,-41189.300,-39232.200,-143380.900,0.000
-39201.330,-39655.710,-40580.140,-52203.330,-14354.980,-41212.670,-39251.190,-143482.400,0.000
-39230.040,-39684.000,-40608.800,-52230.080,-14368.810,-41244.460,-39283.480,-143584.300,0.000
-39265.820,-39722.070,-40645.430,-52272.790,-14390.980,-41284.310,-39323.090,-143705.700,0.000
-39304.800,-39762.230,-40684.750,-52289.350,-14413.750,-41323.220,-39359.390,-143778.700,0.000
-39342.560,-39798.180,-40722.400,-52331.570,-14433.250,-41353.790,-39390.600,-143874.500,0.000
-39375.750,-39828.710,-40754.400,-52344.130,-14445.730,-41380.440,-39412.500,-143941.100,0.000
-39404.140,-39856.740,-40784.540,-52363.620,-14458.800,-41407.260,-39440.020,-144007.900,0.000
-39425.870,-39878.040,-40808.430,-52395.910,-14466.310,-41429.760,-39462.110,-144094.300,0.000
-39446.320,-39898.150,-40829.390,-52401.080,-14470.980,-41450.890,-39480.640,-144138.800,0.000
-39466.850,-39920.750,-40849.800,-52431.020,-14477.010,-41472.290,-39503.830,-144218.200,0.000
-39484.600,-39939.210,-40864.610,-52430.210,-14475.980,-41490.740,-39518.310,-144274.300,0.000
-39509.800,-39962.020,-40887.930,-52445.240,-14483.740,-41513.640,-39542.290,-144336.800,0.000
-39541.560,-39989.760,-40918.890,-52483.210,-14499.190,-41540.930,-39570.920,-144426.800,0.000
-39567.020,-40012.880,-40944.060,-52486.610,-14509.030,-41563.700,-39593.100,-144469.900,0.000
-39585.200,-40030.790,-40963.680,-52508.800,-14515.030,-41583.020,-39614.230,-144538.000,0.000
-39607.180,-40050.030,-40985.220,-52512.450,-14521.360,-41606.450,-39632.630,-144585.100,0.000
-39638.300,-40078.070,-41016.590,-52534.690,-14538.530,-41637.060,-39663.810,-144640.700,0.000
-39665.870,-40106.230,-41046.140,-52568.290,-14555.580,-41666.810,-39693.840,-144719.400,0.000
-39684.000,-40128.070,-41067.350,-52569.060,-14564.780,-41690.610,-39713.500,-144756.500,0.000
-39700.770,-40149.430,-41088.230,-52599.410,-14574.880,-41714.720,-39735.910,-144831.400,0.000
-39718.800,-40170.730,-41108.490,-52605.640,-14583.460,-41739.880,-39755.110,-144883.300,0.000
-39734.060,-40188.710,-41125.790,-52612.260,-14588.960,-41758.300,-39773.340,-144927.600,0.000
-39747.140,-40202.190,-41138.830,-52626.720,-14587.970,-41771.250,-39783.730,-144992.900,0.000
-39766.840,-40219.380,-41156.160,-52621.180,-14589.870,-41789.630,-39795.640,-145032.500,0.000
-39792.730,-40244.340,-41181.030,-52653.700,-14601.710,-41815.200,-39820.520,-145123.000,0.000
-39816.130,-40269.050,-41204.020,-52661.520,-14612.390,-41840.260,-39843.000,-145193.300,0.000
-39837.120,-40292.310,-41227.130,-52672.550,-14624.920,-41863.680,-39870.460,-145262.200,0.000
-39856.170,-40313.790,-41249.140,-52695.590,-14636.920,-41886.840,-39895.550,-145357.200,0.000
-39870.520,-40331.280,-41265.800,-52690.770,-14644.380,-41905.830,-39911.690,-145414.400,0.000
-39879.230,-40344.270,-41277.090,-52709.930,-14647.820,-41917.930,-39924.690,-145507.500,0.000
-39888.750,-40356.440,-41287.750,-52702.620,-14648.210,-41928.640,-39931.590,-145580.700,0.000
-39906.520,-40373.080,-41306.610,-52708.350,-14656.290,-41942.540,-39946.170,-145656.500,0.000
-39927.570,-40388.250,-41326.280,-52731.400,-14664.290,-41956.290,-39959.700,-145759.200,0.000
-39949.020,-40403.580,-41345.060,-52726.620,-14670.630,-41971.810,-39973.150,-145828.100,0.000
-39965.530,-40419.190,-41361.000,-52743.860,-14674.840,-41987.010,-39989.960,-145931.200,0.000
-39976.550,-40430.400,-41371.460,-52735.880,-14673.090,-41999.940,-39998.360,-146011.100,0.000
-39993.990,-40448.110,-41391.060,-52747.460,-14682.920,-42019.060,-40016.380,-146096.000,0.000
-40012.730,-40470.570,-41412.360,-52773.910,-14695.460,-42041.610,-40035.160,-146202.300,0.000
-40027.200,-40489.420,-41427.660,-52765.860,-14703.060,-42062.610,-40051.540,-146265.600,0.000
-40038.800,-40503.410,-41440.620,-52784.690,-14710.280,-42079.450,-40071.310,-146363.000,0.000
-40047.080,-40511.550,-41447.820,-52776.540,-14709.280,-42088.840,-40079.190,-146430.000,0.000
-40056.930,-40520.550,-41456.040,-52773.230,-14709.100,-42097.660,-40090.480,-146485.400,0.000
-40069.620,-40533.020,-41468.280,-52787.360,-14713.280,-42111.230,-40104.950,-146559.500,0.000
-40082.890,-40546.460,-41482.120,-52776.210,-14718.590,-42124.790,-40115.880,-146591.800,0.000
-40098.180,-40562.910,-41499.630,-52794.800,-14728.100,-42139.890,-40131.180,-146658.300,0.000
-40116.340,-40582.150,-41520.040,-52796.080,-14740.010,-42160.090,-40146.070,-146701.600,0.000
-40128.410,-40594.610,-41534.880,-52800.570,-14748.020,-42173.020,-40159.040,-146732.100,0.000
-40131.680,-40597.310,-41539.870,-52810.610,-14745.290,-42176.520,-40161.250,-146776.700,0.000
-40135.360,-40600.460,-41543.950,-52793.140,-14739.740,-42181.720,-40161.250,-146783.400,0.000
-40146.310,-40611.300,-41555.050,-52809.250,-14742.490,-42194.280,-40173.450,-146830.800,0.000
-40163.610,-40628.060,-41571.160,-52808.870,-14751.320,-42212.930,-40188.170,-146860.500,0.000
-40175.710,-40642.060,-41583.300,-52809.800,-14758.750,-42226.790,-40202.700,-146881.500,0.000
-40181.520,-40651.150,-41590.230,-52819.990,-14761.520,-42235.570,-40212.740,-146919.100,0.000
-40187.700,-40659.090,-41597.600,-52808.200,-14764.480,-42243.420,-40222.470,-146918.500,0.000
-40194.730,-40666.390,-41605.240,-52827.930,-14768.080,-42250.250,-40235.980,-146955.800,0.000
-40202.080,-40673.040,-41611.840,-52824.910,-14769.750,-42259.020,-40244.910,-146972.200,0.000
-40207.000,-40677.960,-41617.640,-52823.030,-14772.410,-42266.280,-40255.750,-146982.300,0.000
-40212.230,-40682.250,-41622.400,-52829.480,-14773.290,-42272.080,-40263.140,-147014.400,0.000
-40226.210,-40694.190,-41634.000,-52814.970,-14779.820,-42284.320,-40273.730,-147015.800,0.000
-40244.420,-40711.570,-41652.090,-52837.790,-14793.730,-42300.900,-40292.610,-147063.200,0.000
-40253.500,-40719.900,-41662.050,-52834.200,-14797.870,-42310.430,-40299.260,-147090.900,0.000
-40256.780,-40722.440,-41666.590,-52830.840,-14796.560,-42313.650,-40304.000,-147117.200,0.000
-40265.920,-40729.340,-41674.410,-52843.520,-14797.620,-42319.780,-40310.780,-147174.000,0.000
-40279.860,-40739.390,-41685.660,-52834.640,-14802.290,-42328.490,-40318.590,-147192.500,0.000
-40289.390,-40746.930,-41694.070,-52854.320,-14807.040,-42334.690,-40327.380,-147238.500,0.000
-40292.370,-40749.880,-41694.910,-52843.920,-14803.580,-42336.760,-40323.540,-147256.600,0.000
-40294.770,-40753.700,-41695.690,-52833.480,-14799.970,-42337.560,-40320.410,-147271.900,0.000
-40302.730,-40763.990,-41703.020,-52841.660,-14803.130,-42346.680,-40325.280,-147317.900,0.000
-40313.820,-40777.610,-41715.490,-52831.620,-14812.780,-42362.300,-40337.940,-147326.100,0.000
-40320.520,-40785.670,-41724.300,-52847.230,-14820.240,-42371.930,-40351.860,-147361.700,0.000
-40327.260,-40789.760,-41729.570,-52834.630,-14821.340,-42377.870,-40356.520,-147376.500,0.000
-40334.000,-40792.360,-41735.250,-52826.340,-14822.730,-42381.500,-40363.080,-147393.200,0.000
-40336.610,-40792.770,-41737.310,-52828.820,-14821.330,-42382.940,-40367.140,-147436.500,0.000
-40344.790,-40801.280,-41745.040,-52809.350,-14826.610,-42391.530,-40375.210,-147442.100,0.000
-40354.610,-40814.230,-41756.700,-52826.240,-14838.670,-42402.590,-40388.440,-147475.600,0.000
-40352.910,-40816.920,-41756.190,-52814.340,-14839.590,-42406.200,-40387.860,-147485.500,0.000
-40343.100,-40810.680,-41747.070,-52794.230,-14832.480,-42402.740,-40384.120,-147497.300,0.000
-40338.140,-40806.180,-41742.210,-52785.790,-14826.060,-42400.650,-40380.240,-147537.700,0.000
-40349.000,-40815.300,-41754.620,-52769.080,-14834.840,-42410.660,-40387.620,-147539.500,0.000
-40364.450,-40828.360,-41772.530,-52792.910,-14851.160,-42422.890,-40405.120,-147565.300,0.000
-40367.960,-40829.220,-41774.560,-52780.340,-14850.770,-42423.140,-40405.050,-147564.300,0.000
-40367.160,-40829.270,-41773.390,-52765.690,-14848.690,-42420.960,-40403.430,-147561.400,0.000
-40366.040,-40831.620,-41774.130,-52768.220,-14849.880,-42422.310,-40402.770,-147581.500,0.000
-40359.890,-40828.570,-41769.300,-52738.660,-14845.510,-42420.680,-40396.900,-147562.400,0.000
-40356.680,-40827.460,-41766.800,-52739.220,-14844.050,-42420.430,-40397.740,-147576.200,0.000
-40365.930,-40836.330,-41774.960,-52731.710,-14851.920,-42430.320,-40404.630,-147573.500,0.000
-40382.630,-40852.240,-41791.520,-52737.440,-14869.110,-42446.560,-40422.820,-147572.200,0.000
-40391.190,-40859.310,-41798.660,-52745.960,-14875.450,-42454.190,-40431.160,-147586.900,0.000
-40388.600,-40852.520,-41793.040,-52714.790,-14867.270,-42447.760,-40422.540,-147549.900,0.000
-40380.120,-40840.670,-41783.900,-52711.000,-14857.230,-42435.290,-40412.410,-147538.400,0.000
-40372.810,-40833.590,-41777.760,-52689.270,-14849.830,-42428.700,-40403.480,-147507.400,0.000
-40376.220,-40840.430,-41785.370,-52682.890,-14857.230,-42435.150,-40412.650,-147480.500,0.000
-40381.920,-40850.080,-41794.240,-52691.340,-14866.040,-42443.840,-40422.260,-147477.400,0.000
-40380.130,-40851.730,-41792.210,-52662.710,-14864.570,-42443.950,-40419.770,-147432.700,0.000
-40372.700,-40847.360,-41783.270,-52657.380,-14859.220,-42437.140,-40415.930,-147423.100,0.000
-40365.860,-40840.480,-41773.120,-52632.540,-14852.740,-42430.570,-40407.930,-147389.400,0.000
-40367.390,-40838.770,-41773.020,-52624.840,-14856.840,-42430.880,-40410.600,-147346.500,0.000
-40369.270,-40836.850,-41774.250,-52632.010,-14860.770,-42431.110,-40411.220,-147321.300,0.000
-40366.970,-40833.730,-41772.490,-52601.080,-14859.220,-42427.990,-40404.710,-147258.200,0.000
-40363.940,-40833.730,-41773.730,-52598.140,-14860.520,-42425.910,-40403.410,-147239.800,0.000
-40354.750,-40828.490,-41769.150,-52573.770,-14855.550,-42419.990,-40393.760,-147197.100,0.000
-40341.550,-40819.420,-41760.840,-52553.720,-14849.620,-42410.070,-40385.270,-147136.600,0.000
-40329.970,-40810.590,-41752.560,-52548.170,-14844.630,-42401.290,-40377.320,-147096.000,0.000
-40323.960,-40805.300,-41748.390,-52518.380,-14843.070,-42397.040,-40371.790,-147023.800,0.000
-40321.790,-40803.780,-41749.070,-52525.450,-14847.780,-42396.200,-40375.210,-146996.300,0.000
-40315.520,-40797.630,-41743.730,-52511.600,-14845.800,-42391.920,-40369.450,-146944.900,0.000
-40302.900,-40785.680,-41731.180,-52495.560,-14838.180,-42381.600,-40360.390,-146877.100,0.000
-40284.330,-40769.210,-41712.240,-52485.880,-14825.840,-42368.150,-40347.730,-146827.900,0.000
-40265.890,-40755.280,-41696.090,-52448.220,-14817.010,-42358.590,-40337.540,-146745.400,0.000
-40253.050,-40750.820,-41690.820,-52446.220,-14819.340,-42357.460,-40340.430,-146708.500,0.000
-40245.320,-40752.440,-41690.300,-52425.820,-14824.100,-42362.300,-40343.530,-146652.000,0.000
-40237.280,-40752.230,-41687.760,-52406.520,-14826.770,-42362.280,-40345.290,-146578.400,0.000
-40222.290,-40741.380,-41675.230,-52393.930,-14817.970,-42349.430,-40333.050,-146519.000,0.000
-40205.500,-40724.410,-41658.650,-52351.260,-14803.990,-42331.310,-40313.750,-146419.800,0.000
-40189.270,-40705.740,-41642.200,-52338.520,-14791.860,-42313.050,-40300.180,-146356.600,0.000
-40176.170,-40689.380,-41626.960,-52307.600,-14780.690,-42299.230,-40285.910,-146274.900,0.000
-40171.750,-40684.110,-41622.800,-52291.190,-14782.690,-42295.600,-40284.830,-146190.500,0.000
-40166.170,-40681.120,-41619.340,-52292.090,-14786.520,-42293.190,-40283.180,-146129.100,0.000
-40157.020,-40676.110,-41611.920,-52262.540,-14786.080,-42287.930,-40275.540,-146030.700,0.000
-40151.340,-40673.650,-41607.650,-52263.770,-14789.140,-42284.760,-40274.350,-145973.400,0.000
-40147.340,-40669.320,-41600.860,-52240.140,-14786.460,-42280.500,-40266.130,-145892.500,0.000
-40145.790,-40665.030,-41594.230,-52217.540,-14783.790,-42274.980,-40260.470,-145801.900,0.000
-40144.660,-40659.600,-41587.210,-52210.980,-14782.100,-42268.710,-40254.590,-145739.900,0.000
-40140.600,-40649.900,-41577.400,-52176.680,-14777.540,-42258.360,-40243.040,-145642.300,0.000
-40135.930,-40639.630,-41569.890,-52175.800,-14775.380,-42246.210,-40234.340,-145582.600,0.000
-40129.970,-40629.280,-41562.970,-52156.110,-14772.170,-42234.640,-40220.780,-145505.400,0.000
-40124.950,-40623.950,-41559.960,-52139.740,-14774.320,-42226.910,-40215.150,-145427.000,0.000
-40123.150,-40624.340,-41559.280,-52139.880,-14780.380,-42225.750,-40214.730,-145383.700,0.000
-40120.740,-40623.050,-41554.520,-52109.670,-14783.280,-42225.130,-40212.190,-145304.000,0.000
-40111.060,-40613.180,-41541.610,-52100.210,-14779.370,-42214.250,-40207.050,-145252.200,0.000
-40097.660,-40597.700,-41523.100,-52064.040,-14767.930,-42195.880,-40191.450,-145181.100,0.000
-40093.330,-40590.140,-41514.110,-52039.570,-14766.070,-42185.390,-40186.640,-145119.600,0.000
-40095.590,-40588.170,-41511.690,-52038.530,-14769.880,-42182.240,-40187.810,-145096.800,0.000
-40098.160,-40586.160,-41509.320,-52009.140,-14771.770,-42177.950,-40185.070,-145035.600,0.000
-40099.580,-40585.090,-41508.800,-52009.010,-14776.140,-42173.140,-40184.640,-145011.000,0.000
-40092.500,-40577.930,-41502.860,-51983.460,-14774.880,-42165.460,-40174.160,-144970.200,0.000
-40075.670,-40563.310,-41491.730,-51956.050,-14770.280,-42151.490,-40161.560,-144924.600,0.000
-40056.730,-40547.150,-41478.630,-51943.800,-14764.300,-42135.240,-40147.540,-144908.100,0.000
-40042.910,-40535.450,-41466.800,-51904.250,-14759.850,-42121.570,-40133.660,-144854.300,0.000
-40033.520,-40526.260,-41455.520,-51894.340,-14758.060,-42108.540,-40124.010,-144837.100,0.000
-40024.570,-40512.250,-41438.240,-51860.840,-14749.070,-42092.110,-40104.890,-144805.800,0.000
-40018.250,-40497.580,-41421.950,-51832.540,-14741.460,-42075.110,-40089.800,-144778.000,0.000
-40015.050,-40485.910,-41410.830,-51826.630,-14738.650,-42062.250,-40079.850,-144786.900,0.000
-40013.340,-40477.020,-41404.210,-51794.700,-14738.690,-42053.760,-40071.630,-144759.400,0.000
-40008.300,-40468.380,-41398.540,-51789.740,-14740.580,-42045.190,-40066.520,-144762.300,0.000
-39993.990,-40454.380,-41385.820,-51759.360,-14735.270,-42031.730,-40050.240,-144743.300,0.000
-39973.880,-40438.350,-41371.180,-51730.890,-14730.180,-42015.740,-40035.750,-144723.400,0.000
-39953.070,-40423.740,-41356.600,-51718.940,-14726.350,-42001.960,-40023.180,-144739.200,0.000
-39933.340,-40410.880,-41340.660,-51675.960,-14721.600,-41989.860,-40008.640,-144718.500,0.000
-39913.830,-40397.710,-41322.860,-51659.330,-14717.210,-41976.470,-39997.070,-144731.000,0.000
-39902.880,-40388.270,-41308.550,-51627.180,-14714.150,-41967.220,-39985.410,-144734.300,0.000
-39905.250,-40386.330,-41305.250,-51604.380,-14719.540,-41962.290,-39983.820,-144743.100,0.000
-39903.320,-40375.720,-41296.830,-51588.830,-14717.140,-41947.910,-39972.740,-144773.200,0.000
-39888.500,-40350.100,-41275.610,-51532.860,-14701.150,-41920.340,-39944.710,-144752.300,0.000
-39866.830,-40319.720,-41249.880,-51505.510,-14683.460,-41887.610,-39915.920,-144766.500,0.000
-39848.880,-40298.480,-41228.720,-51465.170,-14671.880,-41865.100,-39892.090,-144774.700,0.000
-39838.920,-40292.920,-41220.150,-51436.450,-14676.240,-41859.070,-39887.710,-144787.800,0.000
-39823.200,-40286.050,-41209.930,-51423.960,-14679.730,-41854.290,-39882.530,-144828.800,0.000
-39800.700,-40271.840,-41193.160,-51379.770,-14675.540,-41844.670,-39869.250,-144825.200,0.000
-39778.660,-40255.640,-41175.670,-51363.460,-14671.170,-41830.930,-39858.050,-144847.200,0.000
-39757.040,-40235.400,-41153.570,-51323.570,-14660.200,-41809.860,-39835.170,-144841.500,0.000
-39741.740,-40217.410,-41133.690,-51288.760,-14651.350,-41787.820,-39813.990,-144827.900,0.000
-39732.360,-40202.430,-41116.380,-51273.690,-14644.420,-41769.230,-39794.770,-144843.400,0.000
-39725.140,-40188.270,-41100.710,-51228.770,-14637.580,-41753.300,-39775.680,-144816.800,0.000
-39719.450,-40176.130,-41089.530,-51212.760,-14635.300,-41739.360,-39763.790,-144820.800,0.000
-39712.210,-40162.800,-41077.570,-51175.610,-14631.280,-41725.110,-39746.090,-144804.200,0.000
-39699.840,-40146.980,-41063.500,-51138.090,-14627.790,-41707.650,-39728.820,-144777.700,0.000
-39678.640,-40125.910,-41042.960,-51114.820,-14620.120,-41685.880,-39707.640,-144776.700,0.000
-39653.700,-40104.290,-41020.390,-51065.930,-14612.150,-41666.150,-39687.080,-144727.100,0.000
-39630.760,-40087.380,-41003.200,-51051.790,-14612.060,-41652.340,-39678.090,-144696.300,0.000
-39609.600,-40070.660,-40986.520,-51017.120,-14609.640,-41638.490,-39663.800,-144648.500,0.000
-39589.310,-40050.830,-40968.100,-50977.630,-14603.300,-41617.670,-39646.160,-144593.500,0.000
-39569.210,-40026.680,-40945.460,-50949.060,-14591.370,-41590.950,-39622.400,-144560.500,0.000
-39558.600,-40009.200,-40928.930,-50900.090,-14584.650,-41571.070,-39602.840,-144494.000,0.000
-39556.360,-40001.290,-40921.800,-50891.210,-14588.740,-41560.210,-39596.810,-144457.000,0.000
-39544.920,-39987.030,-40906.050,-50855.740,-14584.010,-41544.730,-39578.930,-144395.900,0.000
-39523.920,-39967.200,-40883.620,-50811.460,-14574.460,-41523.350,-39556.080,-144316.300,0.000
-39503.780,-39950.700,-40863.750,-50784.090,-14568.130,-41503.830,-39534.070,-144255.100,0.000
-39487.380,-39938.320,-40848.250,-50735.130,-14565.850,-41487.190,-39513.010,-144163.300,0.000
-39469.320,-39923.860,-40832.630,-50719.450,-14565.110,-41468.870,-39495.450,-144099.400,0.000
-39447.120,-39902.670,-40811.400,-50683.070,-14558.200,-41448.470,-39470.490,-144019.700,0.000
-39424.550,-39879.220,-40790.640,-50647.130,-14552.220,-41428.140,-39450.390,-143938.900,0.000
-39397.640,-39849.470,-40765.040,-50620.130,-14539.730,-41401.210,-39425.570,-143875.400,0.000
-39368.910,-39816.600,-40735.520,-50558.660,-14521.160,-41369.230,-39393.960,-143774.600,0.000
-39347.540,-39793.030,-40713.600,-50534.260,-14512.160,-41344.510,-39374.270,-143711.900,0.000
-39334.340,-39779.000,-40697.770,-50500.570,-14510.370,-41330.230,-39359.000,-143642.900,0.000
-39323.770,-39769.060,-40684.620,-50471.060,-14513.410,-41319.360,-39349.380,-143566.500,0.000
-39305.230,-39753.000,-40664.180,-50451.800,-14510.080,-41302.920,-39333.480,-143503.300,0.000
-39281.820,-39732.730,-40639.340,-50401.090,-14502.130,-41283.640,-39312.740,-143402.500,0.000
-39260.600,-39713.980,-40618.270,-50383.230,-14498.110,-41265.280,-39298.340,-143329.200,0.000
-39237.360,-39690.080,-40593.330,-50342.330,-14487.580,-41241.610,-39273.910,-143238.200,0.000
-39209.690,-39659.610,-40563.910,-50295.510,-14472.010,-41208.630,-39244.580,-143141.500,0.000
-39179.080,-39625.890,-40532.140,-50263.340,-14453.500,-41172.380,-39211.950,-143069.000,0.000
-39155.660,-39601.230,-40508.590,-50211.660,-14443.780,-41148.400,-39187.800,-142973.400,0.000
-39138.000,-39585.950,-40493.490,-50196.440,-14444.670,-41133.680,-39176.860,-142913.000,0.000
-39113.250,-39564.000,-40470.270,-50153.560,-14435.430,-41111.730,-39152.990,-142826.800,0.000
-39087.300,-39540.040,-40445.070,-50108.640,-14424.640,-41086.640,-39128.490,-142728.000,0.000
-39067.850,-39521.410,-40423.670,-50088.790,-14419.410,-41067.210,-39108.380,-142660.100,0.000
-39052.820,-39505.090,-40403.410,-50044.760,-14416.570,-41051.530,-39088.980,-142567.800,0.000
-39034.520,-39484.210,-40380.410,-50023.000,-14412.140,-41031.000,-39070.530,-142495.100,0.000
-39008.800,-39455.260,-40350.630,-49972.240,-14398.650,-41002.790,-39040.790,-142395.800,0.000
-38981.230,-39426.720,-40322.570,-49922.340,-14387.330,-40974.200,-39014.630,-142294.700,0.000
-38951.220,-39397.830,-40293.560,-49889.890,-14374.960,-40944.410,-38986.140,-142220.600,0.000
-38921.220,-39368.710,-40263.460,-49829.460,-14360.600,-40913.250,-38953.270,-142115.500,0.000
-38896.060,-39344.810,-40239.790,-49804.760,-14354.020,-40886.500,-38931.570,-142041.400,0.000
-38874.390,-39323.110,-40219.290,-49766.630,-14348.780,-40864.350,-38910.570,-141952.200,0.000
-38857.290,-39304.090,-40202.900,-49733.500,-14346.580,-40845.370,-38895.080,-141849.100,0.000
-38840.840,-39284.750,-40185.040,-49715.910,-14341.760,-40825.240,-38876.850,-141753.500,0.000
-38820.920,-39261.870,-40161.820,-49663.330,-14331.350,-40800.840,-38850.540,-141620.100,0.000
-38796.380,-39236.800,-40135.520,-49638.320,-14321.080,-40773.840,-38825.200,-141517.500,0.000
-38768.870,-39211.440,-40106.330,-49595.370,-14309.200,-40748.040,-38795.020,-141394.100,0.000
-38745.300,-39191.540,-40083.150,-49554.300,-14305.250,-40727.710,-38774.410,-141261.500,0.000
-38723.010,-39171.600,-40062.070,-49528.170,-14302.800,-40707.950,-38755.120,-141140.700,0.000
-38698.780,-39147.170,-40038.350,-49470.770,-14295.430,-40683.260,-38728.590,-140974.800,0.000
-38675.490,-39122.880,-40016.250,-49446.630,-14289.890,-40656.410,-38706.120,-140850.100,0.000
-38652.520,-39097.770,-39991.880,-49406.000,-14281.710,-40630.270,-38680.660,-140702.200,0.000
-38628.160,-39071.850,-39965.790,-49365.550,-14274.740,-40604.750,-38659.420,-140530.700,0.000
-38598.730,-39042.570,-39935.010,-49339.410,-14263.850,-40575.270,-38632.730,-140385.000,0.000
-38568.200,-39012.400,-39902.640,-49279.500,-14248.750,-40542.950,-38598.910,-140208.300,0.000
-38542.040,-38985.840,-39875.290,-49249.430,-14238.270,-40514.000,-38572.520,-140077.400,0.000
-38517.370,-38958.930,-39848.020,-49202.780,-14226.950,-40488.030,-38543.320,-139936.700,0.000
-38495.380,-38935.420,-39825.310,-49161.150,-14222.250,-40465.630,-38522.010,-139788.600,0.000
-38474.070,-38913.680,-39804.100,-49140.640,-14220.370,-40444.350,-38503.890,-139673.500,0.000
-38449.310,-38887.430,-39777.430,-49085.670,-14212.310,-40417.750,-38478.700,-139520.800,0.000
-38422.070,-38858.760,-39748.300,-49054.440,-14202.580,-40386.710,-38453.770,-139403.100,0.000
-38392.200,-38828.790,-39716.210,-49004.190,-14188.470,-40354.600,-38421.490,-139272.400,0.000
-38361.810,-38801.060,-39685.790,-48953.880,-14176.820,-40324.210,-38393.430,-139128.600,0.000
-38332.300,-38773.980,-39655.600,-48917.440,-14166.240,-40295.450,-38366.710,-139008.100,0.000
-38304.970,-38745.800,-39625.200,-48851.980,-14154.720,-40267.200,-38337.230,-138857.500,0.000
-38279.900,-38719.280,-39598.830,-48823.280,-14147.030,-40240.000,-38313.740,-138762.800,0.000
-38253.690,-38691.880,-39571.180,-48780.630,-14136.710,-40212.390,-38285.790,-138668.400,0.000
-38225.050,-38662.700,-39541.910,-48737.340,-14127.220,-40182.900,-38260.400,-138570.100,0.000
-38193.050,-38630.310,-39510.030,-48709.880,-14115.610,-40150.460,-38232.260,-138505.800,0.000
-38160.320,-38597.180,-39477.960,-48653.590,-14101.320,-40116.890,-38200.030,-138412.500,0.000
-38126.490,-38564.460,-39446.580,-48625.150,-14087.840,-40082.510,-38172.130,-138362.300,0.000
-38091.080,-38529.660,-39411.440,-48575.540,-14069.880,-40046.600,-38137.180,-138303.400,0.000
-38059.800,-38497.290,-39378.840,-48530.930,-14055.660,-40012.030,-38105.850,-138245.400,0.000
-38032.780,-38467.890,-39348.720,-48512.320,-14044.200,-39981.050,-38076.520,-138231.000,0.000
-38009.810,-38442.410,-39321.570,-48468.710,-14034.910,-39954.820,-38047.270,-138190.600,0.000
-37986.450,-38417.680,-39296.060,-48452.030,-14028.580,-39927.720,-38021.860,-138190.700,0.000
-37956.970,-38386.940,-39264.860,-48409.850,-14016.040,-39895.380,-37987.520,-138175.000,0.000
-37924.630,-38354.510,-39233.540,-48364.300,-14004.570,-39861.550,-37956.570,-138138.700,0.000
-37889.730,-38320.470,-39201.260,-48335.820,-13992.680,-39826.850,-37925.230,-138126.700,0.000
-37855.550,-38286.280,-39168.370,-48275.980,-13980.130,-39792.590,-37890.710,-138067.800,0.000
-37826.290,-38256.540,-39139.470,-48245.910,-13973.420,-39761.360,-37863.570,-138016.900,0.000
-37801.690,-38230.680,-39112.350,-48200.190,-13967.310,-39734.390,-37835.180,-137953.900,0.000
-37778.870,-38206.630,-39086.630,-48153.810,-13962.700,-39708.460,-37810.320,-137881.000,0.000
-37750.590,-38177.410,-39055.090,-48120.930,-13952.370,-39677.820,-37780.730,-137821.200,0.000
-37721.230,-38147.740,-39022.790,-48056.960,-13940.610,-39648.710,-37750.890,-137721.500,0.000
-37691.400,-38118.670,-38992.760,-48018.920,-13931.920,-39619.930,-37727.210,-137632.100,0.000
-37654.470,-38081.290,-38954.770,-47953.640,-13913.310,-39582.480,-37688.820,-137528.800,0.000
-37620.080,-38046.610,-38920.050,-47889.840,-13897.940,-39546.520,-37654.420,-137425.400,0.000
-37589.080,-38016.530,-38889.290,-47849.950,-13887.170,-39516.040,-37625.990,-137341.300,0.000
-37552.750,-37979.620,-38851.130,-47773.910,-13870.150,-39480.380,-37589.380,-137217.000,0.000
-37516.460,-37941.200,-38811.800,-47724.090,-13854.500,-39441.760,-37554.440,-137101.900,0.000
-37488.770,-37910.910,-38779.190,-47664.710,-13843.250,-39409.230,-37520.200,-136980.500,0.000
-37467.710,-37887.590,-38754.900,-47613.640,-13838.570,-39381.570,-37493.880,-136861.300,0.000
-37444.210,-37863.130,-38730.490,-47582.530,-13833.030,-39353.860,-37467.160,-136754.700,0.000
-37417.410,-37837.770,-38704.110,-47517.670,-13825.660,-39325.830,-37437.120,-136611.400,0.000
-37386.850,-37810.040,-38675.030,-47476.770,-13818.110,-39293.870,-37408.730,-136479.400,0.000
-37352.630,-37776.870,-38639.840,-47415.170,-13803.810,-39258.200,-37371.560,-136331.200,0.000
-37321.900,-37746.270,-38608.350,-47356.270,-13793.110,-39225.750,-37341.020,-136184.300,0.000
-37290.570,-37714.750,-38576.460,-47317.730,-13781.370,-39192.110,-37310.520,-136056.400,0.000
-37257.770,-37681.160,-38542.370,-47250.440,-13767.250,-39156.640,-37276.000,-135902.300,0.000
-37224.250,-37647.580,-38508.880,-47213.840,-13756.670,-39121.860,-37247.300,-135777.600,0.000
-37185.660,-37607.470,-38469.050,-47154.010,-13739.990,-39083.110,-37209.550,-135635.300,0.000
-37151.500,-37570.580,-38433.750,-47096.330,-13728.380,-39046.490,-37177.670,-135490.200,0.000
-37120.860,-37538.360,-38401.920,-47064.110,-13719.320,-39012.830,-37149.060,-135372.600,0.000
-37087.550,-37504.310,-38366.310,-46998.870,-13704.870,-38977.350,-37113.630,-135222.800,0.000
-37057.280,-37473.490,-38333.820,-46963.690,-13693.550,-38944.090,-37082.800,-135097.300,0.000
-37030.070,-37444.640,-38302.950,-46914.830,-13681.560,-38913.250,-37048.580,-134958.800,0.000
-37002.460,-37415.150,-38273.030,-46865.390,-13671.730,-38881.450,-37018.150,-134814.300,0.000
-36971.880,-37383.490,-38240.910,-46834.020,-13661.550,-38848.090,-36988.460,-134692.300,0.000
-36941.110,-37352.910,-38208.650,-46772.470,-13651.680,-38817.060,-36960.570,-134538.200,0.000
-36911.730,-37325.980,-38180.200,-46740.290,-13647.580,-38789.740,-36945.330,-134410.800,0.000
-36878.750,-37296.410,-38147.910,-46686.700,-13639.500,-38761.450,-36924.770,-134266.800,0.000
-36842.810,-37264.280,-38113.320,-46630.500,-13630.340,-38730.340,-36897.780,-134121.400,0.000
-36807.290,-37230.250,-38077.860,-46598.040,-13619.260,-38695.680,-36859.870,-134013.800,0.000
-36773.350,-37193.450,-38040.970,-46536.840,-13603.330,-38656.280,-36813.000,-133876.400,0.000
-36739.520,-37154.430,-38003.900,-46502.080,-13586.560,-38612.630,-36769.930,-133759.200,0.000
-36704.710,-37112.460,-37963.560,-46447.270,-13565.790,-38567.290,-36722.540,-133622.100,0.000
-36668.160,-37068.510,-37920.810,-46388.830,-13545.360,-38521.610,-36679.840,-133479.700,0.000
-36629.360,-37024.050,-37875.980,-46350.760,-13524.600,-38476.870,-36639.730,-133370.700,0.000
-36595.750,-36988.550,-37837.950,-46291.950,-13509.950,-38440.490,-36603.730,-133236.800,0.000
-36566.480,-36961.520,-37808.040,-46269.160,-13504.020,-38410.290,-36576.040,-133131.200,0.000
-36531.980,-36929.200,-37772.650,-46221.810,-13490.870,-38374.830,-36537.330,-133000.800,0.000
-36495.570,-36894.860,-37736.340,-46169.440,-13477.750,-38336.800,-36501.960,-132853.300,0.000
-36464.620,-36865.660,-37705.450,-46144.390,-13471.170,-38304.460,-36475.250,-132734.300,0.000
-36435.400,-36835.680,-37674.590,-46088.080,-13464.330,-38273.180,-36446.300,-132583.500,0.000
-36396.800,-36795.970,-37634.940,-46048.830,-13450.530,-38233.200,-36412.070,-132448.000,0.000
-36350.290,-36749.060,-37585.490,-45986.400,-13426.370,-38187.590,-36365.380,-132287.300,0.000
-36307.950,-36706.740,-37540.440,-45927.000,-13406.660,-38145.730,-36324.820,-132125.600,0.000
-36271.470,-36669.380,-37502.330,-45891.110,-13393.290,-38108.360,-36289.520,-131997.900,0.000
-36241.520,-36637.840,-37471.500,-45828.000,-13385.740,-38076.540,-36256.770,-131836.200,0.000
-36218.590,-36614.280,-37449.440,-45803.340,-13387.270,-38050.770,-36235.250,-131712.800,0.000
-36194.450,-36587.990,-37423.630,-45762.340,-13383.250,-38022.140,-36206.280,-131577.100,0.000
-36163.930,-36554.670,-37390.960,-45709.260,-13373.010,-37986.800,-36174.130,-131420.600,0.000
-36125.320,-36515.390,-37351.540,-45669.930,-13357.370,-37948.740,-36139.900,-131283.300,0.000
-36078.320,-36469.880,-37304.140,-45593.910,-13334.740,-37905.890,-36097.250,-131104.500,0.000
-36027.570,-36422.700,-37254.950,-45542.800,-13312.600,-37858.730,-36054.200,-130954.800,0.000
-35982.930,-36382.420,-37211.980,-45482.300,-13295.860,-37818.850,-36012.120,-130793.000,0.000
-35947.340,-36351.810,-37178.930,-45426.860,-13288.930,-37786.910,-35980.490,-130619.500,0.000
-35911.360,-36319.060,-37144.220,-45388.740,-13278.680,-37750.230,-35945.150,-130468.500,0.000
-35874.750,-36281.610,-37106.120,-45316.480,-13262.710,-37709.260,-35903.500,-130275.500,0.000
-35839.120,-36243.290,-37068.860,-45273.460,-13248.930,-37669.030,-35868.890,-130120.200,0.000
-35799.890,-36201.450,-37026.840,-45213.540,-13230.530,-37627.180,-35828.700,-129948.900,0.000
-35758.870,-36159.790,-36984.840,-45150.170,-13213.100,-37584.020,-35790.290,-129753.000,0.000
-35715.660,-36116.820,-36941.910,-45105.350,-13194.350,-37539.450,-35749.520,-129582.500,0.000
-35672.370,-36073.630,-36898.660,-45029.680,-13174.520,-37495.340,-35704.330,-129378.600,0.000
-35629.200,-36032.380,-36857.900,-44984.920,-13159.310,-37451.580,-35664.530,-129217.800,0.000
-35587.350,-35993.000,-36817.880,-44928.160,-13144.610,-37409.670,-35622.700,-129051.300,0.000
-35556.210,-35964.520,-36787.700,-44877.090,-13140.390,-37377.600,-35593.300,-128875.200,0.000
-35525.500,-35936.010,-36756.300,-44846.390,-13134.450,-37345.220,-35563.040,-128727.200,0.000
-35486.830,-35896.910,-36714.820,-44777.930,-13117.200,-37302.900,-35520.260,-128534.300,0.000
-35448.780,-35857.950,-36675.080,-44740.070,-13103.380,-37261.720,-35484.360,-128380.100,0.000
-35410.160,-35820.320,-36634.960,-44689.320,-13088.830,-37225.240,-35447.420,-128221.900,0.000
-35367.560,-35781.130,-36592.710,-44631.280,-13073.350,-37187.180,-35411.920,-128046.400,0.000
-35323.330,-35740.770,-36550.120,-44588.880,-13058.120,-37147.210,-35375.930,-127896.000,0.000
-35279.210,-35698.870,-36508.210,-44513.890,-13042.060,-37105.670,-35334.850,-127704.300,0.000
-35232.660,-35653.440,-36465.960,-44466.940,-13025.290,-37059.240,-35293.200,-127546.300,0.000
-35185.990,-35606.500,-36421.350,-44407.550,-13004.370,-37010.970,-35244.630,-127383.600,0.000
-35145.300,-35564.640,-36380.600,-44349.400,-12988.760,-36966.560,-35203.380,-127213.200,0.000
-35105.270,-35523.890,-36339.320,-44310.710,-12974.110,-36924.600,-35165.600,-127075.300,0.000
-35063.650,-35484.390,-36296.140,-44241.010,-12957.940,-36885.680,-35127.480,-126901.900,0.000
-35020.520,-35446.880,-36253.680,-44197.660,-12944.270,-36847.560,-35093.950,-126758.600,0.000
-34968.580,-35400.200,-36202.890,-44125.920,-12920.310,-36800.670,-35044.690,-126587.300,0.000
-34912.510,-35348.030,-36150.380,-44043.300,-12893.900,-36748.020,-34991.840,-126389.500,0.000
-34865.310,-35303.720,-36107.110,-43991.580,-12876.520,-36702.860,-34947.370,-126232.600,0.000
-34829.370,-35269.620,-36072.890,-43921.940,-12867.420,-36667.530,-34909.610,-126053.200,0.000
-34794.600,-35236.450,-36040.530,-43880.680,-12861.440,-36633.740,-34879.440,-125910.700,0.000
-34757.360,-35199.410,-36004.450,-43820.920,-12851.370,-36599.460,-34845.240,-125758.800,0.000
-34722.340,-35163.110,-35969.210,-43759.420,-12843.210,-36564.550,-34813.250,-125598.900,0.000
-34684.770,-35123.690,-35928.950,-43715.680,-12829.780,-36523.970,-34774.570,-125472.300,0.000
-34644.350,-35082.510,-35883.790,-43637.600,-12810.550,-36481.030,-34729.600,-125303.700,0.000
-34607.860,-35046.240,-35843.500,-43590.710,-12797.290,-36441.020,-34693.710,-125168.500,0.000
-34577.750,-35013.540,-35807.660,-43533.640,-12786.120,-36402.830,-34655.640,-125030.700,0.000
-34551.730,-34983.390,-35776.380,-43477.290,-12779.060,-36365.340,-34620.380,-124887.600,0.000
-34520.900,-34949.680,-35742.010,-43442.220,-12770.150,-36326.680,-34583.500,-124781.300,0.000
-34483.080,-34909.450,-35701.150,-43374.410,-12756.390,-36285.970,-34542.410,-124635.500,0.000
-34440.030,-34862.890,-35656.190,-43330.660,-12741.410,-36240.730,-34503.820,-124517.000,0.000
-34395.860,-34813.570,-35608.460,-43268.490,-12721.160,-36192.460,-34458.220,-124388.400,0.000
-34358.840,-34772.490,-35568.210,-43206.190,-12705.520,-36148.150,-34419.290,-124253.700,0.000
-34324.010,-34733.960,-35530.400,-43166.430,-12691.010,-36105.810,-34381.230,-124155.100,0.000
-34288.090,-34694.300,-35491.050,-43095.030,-12675.850,-36064.190,-34339.640,-124013.800,0.000
-34252.680,-34659.460,-35454.410,-43053.550,-12666.880,-36025.650,-34307.440,-123900.100,0.000
-34216.170,-34626.290,-35416.320,-42998.430,-12656.340,-35989.370,-34272.640,-123775.800,0.000
-34180.680,-34593.760,-35380.040,-42942.020,-12648.790,-35954.920,-34240.560,-123641.200,0.000
-34140.730,-34556.150,-35339.590,-42903.630,-12637.470,-35915.890,-34202.650,-123539.000,0.000
-34099.800,-34516.710,-35296.410,-42832.850,-12621.820,-35874.460,-34158.760,-123397.400,0.000
-34068.790,-34484.520,-35262.580,-42798.130,-12615.970,-35840.420,-34128.560,-123295.600,0.000
-34039.770,-34449.640,-35228.620,-42748.290,-12607.640,-35806.360,-34094.300,-123185.500,0.000
-34002.600,-34406.070,-35188.020,-42685.740,-12591.140,-35762.040,-34053.420,-123053.200,0.000
-33956.590,-34356.390,-35140.610,-42638.110,-12566.790,-35708.450,-34004.850,-122947.000,0.000
-33912.650,-34310.670,-35094.790,-42563.480,-12544.160,-35656.990,-33954.990,-122804.000,0.000
-33876.060,-34275.150,-35057.140,-42526.340,-12534.020,-35615.880,-33919.080,-122699.900,0.000
-33834.750,-34236.200,-35013.530,-42470.220,-12519.700,-35574.660,-33877.130,-122583.200,0.000
-33787.360,-34190.460,-34964.650,-42399.960,-12501.150,-35527.360,-33832.400,-122443.000,0.000
-33741.470,-34145.270,-34918.360,-42350.600,-12484.540,-35481.410,-33789.640,-122332.600,0.000
-33700.560,-34103.680,-34876.440,-42276.340,-12470.240,-35440.230,-33747.070,-122187.300,0.000
-33664.680,-34065.110,-34839.180,-42234.610,-12460.550,-35401.110,-33710.810,-122079.200,0.000
-33628.400,-34024.550,-34798.870,-42178.000,-12446.500,-35359.670,-33668.060,-121964.300,0.000
-33589.120,-33983.410,-34756.550,-42118.640,-12432.420,-35316.310,-33627.880,-121839.100,0.000
-33547.890,-33942.260,-34713.090,-42081.760,-12418.720,-35274.210,-33589.660,-121749.300,0.000
-33508.520,-33901.000,-34669.600,-42010.830,-12403.060,-35233.190,-33547.500,-121613.300,0.000
-33469.060,-33859.460,-34627.160,-41963.710,-12387.870,-35189.190,-33506.320,-121496.100,0.000
-33425.140,-33814.910,-34580.590,-41899.800,-12367.510,-35141.360,-33456.410,-121363.000,0.000
-33384.640,-33774.230,-34537.800,-41836.540,-12352.940,-35097.750,-33414.410,-121221.100,0.000
-33350.160,-33738.280,-34499.830,-41799.480,-12344.000,-35060.960,-33380.330,-121116.600,0.000
-33317.170,-33702.090,-34461.940,-41731.380,-12333.120,-35024.840,-33343.260,-120965.200,0.000
-33282.640,-33663.930,-34424.660,-41690.220,-12322.090,-34984.460,-33307.250,-120834.000,0.000
-33244.560,-33621.590,-34383.970,-41631.480,-12304.980,-34939.370,-33261.410,-120688.500,0.000
-33203.220,-33577.760,-34341.360,-41566.600,-12287.190,-34892.790,-33216.250,-120531.300,0.000
-33156.580,-33531.390,-34293.790,-41519.350,-12267.090,-34844.920,-33170.710,-120404.900,0.000
-33110.850,-33485.560,-34244.550,-41438.740,-12246.060,-34797.680,-33122.490,-120228.100,0.000
-33070.930,-33445.600,-34201.010,-41392.720,-12233.410,-34754.890,-33083.850,-120079.200,0.000
-33032.320,-33407.620,-34158.650,-41337.110,-12221.880,-34715.830,-33044.910,-119930.800,0.000
-32994.940,-33369.840,-34118.950,-41276.530,-12212.570,-34676.820,-33010.090,-119777.800,0.000
-32955.680,-33327.540,-34077.820,-41235.510,-12200.040,-34631.900,-32970.820,-119658.700,0.000
-32912.050,-33280.690,-34032.600,-41162.760,-12181.190,-34581.850,-32922.730,-119495.500,0.000
-32864.270,-33233.800,-33987.030,-41117.270,-12162.850,-34531.550,-32878.590,-119356.900,0.000
-32815.760,-33187.990,-33941.100,-41054.480,-12142.940,-34483.960,-32830.620,-119212.100,0.000
-32777.530,-33151.460,-33904.240,-40991.520,-12133.070,-34444.690,-32792.490,-119065.300,0.000
-32743.480,-33117.760,-33869.300,-40955.680,-12126.820,-34407.830,-32757.470,-118956.900,0.000
-32696.620,-33069.530,-33819.260,-40879.010,-12105.490,-34356.950,-32705.890,-118792.900,0.000
-32641.890,-33012.950,-33762.030,-40821.270,-12078.260,-34296.870,-32652.340,-118634.700,0.000
-32594.320,-32964.240,-33711.690,-40756.110,-12057.690,-34247.260,-32605.560,-118468.400,0.000
-32550.950,-32922.090,-33667.240,-40691.730,-12044.330,-34205.300,-32568.380,-118298.300,0.000
-32502.800,-32876.180,-33618.580,-40645.510,-12026.090,-34157.830,-32526.170,-118158.100,0.000
-32459.080,-32833.290,-33573.630,-40570.480,-12008.900,-34112.200,-32482.170,-117980.100,0.000
-32425.330,-32799.320,-33539.980,-40530.510,-12002.410,-34074.950,-32449.530,-117835.700,0.000
-32390.780,-32762.530,-33504.580,-40476.160,-11991.640,-34037.200,-32409.320,-117680.000,0.000
-32351.380,-32720.780,-33465.240,-40413.640,-11977.690,-33994.970,-32367.230,-117503.600,0.000
-32309.780,-32678.820,-33423.570,-40370.440,-11963.360,-33950.630,-32325.130,-117351.900,0.000
-32269.420,-32638.660,-33381.100,-40296.800,-11949.510,-33907.500,-32282.330,-117160.800,0.000
-32228.160,-32597.660,-33338.320,-40253.070,-11938.200,-33864.810,-32246.040,-116997.600,0.000
-32177.960,-32546.750,-33285.690,-40187.870,-11916.340,-33815.180,-32198.280,-116805.500,0.000
-32122.980,-32491.130,-33229.280,-40110.790,-11890.850,-33760.160,-32147.700,-116579.200,0.000
-32074.070,-32442.490,-33180.130,-40060.600,-11872.510,-33711.630,-32103.140,-116384.800,0.000
-32033.500,-32402.410,-33139.790,-39986.290,-11861.590,-33672.770,-32063.340,-116160.300,0.000
-31990.270,-32359.790,-33098.100,-39937.290,-11849.930,-33629.150,-32024.160,-115968.100,0.000
-31938.260,-32306.410,-33044.630,-39864.730,-11825.110,-33573.210,-31968.000,-115752.900,0.000
-31890.210,-32256.070,-32993.860,-39788.570,-11803.870,-33520.610,-31917.160,-115510.400,0.000
-31850.900,-32215.460,-32952.180,-39745.710,-11792.550,-33480.230,-31878.930,-115305.700,0.000
-31811.770,-32175.640,-32910.300,-39674.020,-11780.000,-33440.660,-31837.940,-115070.500,0.000
-31768.630,-32133.080,-32865.190,-39628.030,-11765.020,-33395.050,-31796.190,-114875.200,0.000
-31728.090,-32093.150,-32820.620,-39570.780,-11749.340,-33351.730,-31751.530,-114681.400,0.000
-31691.710,-32057.470,-32781.320,-39511.730,-11739.770,-33312.660,-31713.990,-114475.500,0.000
-31650.100,-32015.820,-32738.830,-39473.410,-11727.140,-33268.860,-31673.290,-114307.600,0.000
-31604.600,-31967.220,-32691.550,-39395.190,-11707.150,-33219.090,-31623.540,-114104.700,0.000
-31556.060,-31915.430,-32642.350,-39337.070,-11685.820,-33164.940,-31576.860,-113933.900,0.000
-31506.550,-31864.230,-32590.930,-39267.820,-11662.470,-33111.440,-31527.170,-113765.600,0.000
-31463.940,-31821.120,-32545.030,-39202.160,-11646.510,-33064.700,-31484.940,-113601.500,0.000
-31418.800,-31775.600,-32495.860,-39159.300,-11628.840,-33016.570,-31440.890,-113485.300,0.000
-31369.290,-31724.060,-32441.380,-39079.900,-11605.580,-32965.170,-31389.170,-113336.500,0.000
-31326.260,-31678.380,-32394.270,-39031.880,-11590.180,-32919.080,-31346.750,-113226.400,0.000
-31286.080,-31635.220,-32348.640,-38971.840,-11573.940,-32874.880,-31300.850,-113104.000,0.000
-31243.040,-31588.600,-32300.930,-38900.370,-11554.620,-32825.000,-31252.450,-112943.100,0.000
-31197.330,-31538.220,-32252.060,-38849.860,-11532.750,-32769.970,-31200.570,-112799.200,0.000
-31151.580,-31488.910,-32204.230,-38771.290,-11510.440,-32716.500,-31146.030,-112613.200,0.000
-31105.030,-31443.820,-32159.020,-38724.150,-11493.850,-32667.690,-31101.060,-112459.800,0.000
-31055.580,-31397.810,-32110.980,-38664.840,-11475.730,-32619.670,-31053.640,-112297.700,0.000
-31008.710,-31352.390,-32065.010,-38600.200,-11460.570,-32571.990,-31010.950,-112114.600,0.000
-30965.780,-31309.280,-32021.320,-38558.480,-11447.990,-32527.980,-30972.690,-111962.700,0.000
-30926.320,-31269.170,-31978.580,-38485.430,-11435.780,-32488.680,-30933.120,-111775.400,0.000
-30891.630,-31232.790,-31940.540,-38442.870,-11428.080,-32450.350,-30898.370,-111630.600,0.000
-30853.950,-31191.440,-31898.530,-38385.790,-11413.560,-32405.740,-30854.570,-111485.900,0.000
-30808.090,-31144.480,-31851.470,-38318.000,-11395.370,-32355.880,-30812.090,-111321.300,0.000
-30761.640,-31101.080,-31807.160,-38272.900,-11381.670,-32310.270,-30777.490,-111184.700,0.000
-30720.920,-31063.670,-31768.660,-38197.790,-11372.320,-32269.740,-30743.040,-110999.500,0.000
-30681.490,-31027.940,-31732.830,-38152.690,-11367.020,-32230.370,-30710.960,-110837.600,0.000
-30640.200,-30990.040,-31693.390,-38095.930,-11358.550,-32192.790,-30672.350,-110668.500,0.000
-30596.630,-30947.050,-31649.260,-38027.550,-11345.670,-32150.720,-30629.570,-110481.200,0.000
-30547.110,-30895.040,-31596.690,-37975.790,-11323.330,-32098.530,-30577.760,-110329.300,0.000
-30496.330,-30841.960,-31541.960,-37895.370,-11298.230,-32045.670,-30526.250,-110147.100,0.000
-30448.560,-30795.230,-31493.070,-37847.630,-11281.740,-31998.300,-30489.880,-109998.300,0.000
-30401.130,-30750.480,-31444.690,-37784.950,-11265.140,-31953.110,-30449.050,-109836.100,0.000
-30355.010,-30707.890,-31398.820,-37713.360,-11250.510,-31908.860,-30406.670,-109653.000,0.000
-30307.820,-30663.530,-31352.140,-37663.440,-11234.040,-31862.210,-30359.760,-109503.200,0.000
-30257.630,-30613.400,-31301.150,-37579.920,-11211.400,-31810.170,-30303.450,-109312.300,0.000
-30208.800,-30562.510,-31252.060,-37526.030,-11191.510,-31755.690,-30252.220,-109154.100,0.000
-30170.150,-30518.560,-31209.990,-37467.200,-11177.480,-31707.950,-30205.570,-108999.600,0.000
-30140.540,-30482.560,-31176.230,-37408.070,-11172.980,-31669.130,-30171.610,-108840.600,0.000
-30099.560,-30437.790,-31133.060,-37365.840,-11160.020,-31623.720,-30132.200,-108721.800,0.000
-30045.100,-30382.250,-31077.030,-37281.970,-11132.300,-31567.850,-30077.170,-108564.200,0.000
-29994.070,-30332.180,-31025.480,-37226.430,-11109.700,-31515.070,-30029.800,-108442.500,0.000
-29951.620,-30290.830,-30981.040,-37164.440,-11093.510,-31470.290,-29986.250,-108324.900,0.000
-29913.760,-30253.240,-30941.440,-37097.490,-11082.360,-31427.350,-29947.160,-108196.200,0.000
-29875.220,-30212.840,-30901.190,-37052.770,-11070.480,-31381.690,-29906.520,-108103.200,0.000
-29834.470,-30168.660,-30857.960,-36977.690,-11055.620,-31335.150,-29861.350,-107971.300,0.000
-29787.140,-30119.680,-30810.050,-36931.010,-11039.410,-31285.770,-29818.620,-107872.300,0.000
-29735.800,-30067.690,-30757.350,-36872.000,-11018.030,-31235.000,-29769.260,-107773.400,0.000
-29691.090,-30023.090,-30711.560,-36808.580,-11002.730,-31189.300,-29725.530,-107665.400,0.000
-29648.690,-29981.360,-30668.400,-36767.610,-10989.140,-31144.520,-29682.190,-107594.900,0.000
-29604.420,-29937.310,-30622.250,-36688.920,-10972.150,-31098.300,-29633.970,-107468.400,0.000
-29558.660,-29891.850,-30576.060,-36633.030,-10957.930,-31051.350,-29592.040,-107343.400,0.000
-29509.780,-29841.790,-30526.610,-36564.680,-10939.170,-31001.560,-29544.190,-107208.600,0.000
-29460.380,-29791.670,-30477.740,-36492.620,-10920.260,-30951.070,-29498.710,-107061.700,0.000
-29409.600,-29742.360,-30427.680,-36446.440,-10901.110,-30900.630,-29453.750,-106947.800,0.000
-29360.840,-29694.390,-30377.560,-36369.390,-10882.250,-30852.150,-29405.690,-106793.400,0.000
-29315.500,-29648.790,-30331.040,-36320.660,-10868.630,-30805.150,-29363.530,-106647.800,0.000
-29266.480,-29599.590,-30279.740,-36258.520,-10849.160,-30755.350,-29312.490,-106493.500,0.000
-29215.650,-29549.050,-30226.530,-36185.990,-10827.590,-30703.720,-29261.370,-106328.800,0.000
-29167.470,-29499.590,-30174.830,-36135.720,-10807.060,-30652.310,-29212.700,-106190.300,0.000
-29125.630,-29454.620,-30128.430,-36058.730,-10790.700,-30606.410,-29166.930,-106020.500,0.000
-29087.620,-29414.960,-30088.970,-36015.640,-10782.880,-30566.600,-29133.980,-105870.000,0.000
-29040.180,-29368.310,-30041.360,-35956.160,-10766.640,-30521.390,-29090.310,-105703.800,0.000
-28983.160,-29315.390,-29986.500,-35880.390,-10744.200,-30468.350,-29037.900,-105516.000,0.000
-28927.760,-29265.600,-29933.610,-35828.510,-10724.510,-30416.500,-28986.070,-105347.800,0.000
-28880.180,-29221.550,-29885.590,-35750.790,-10708.720,-30371.030,-28937.420,-105148.800,0.000
-28839.060,-29180.720,-29843.000,-35703.110,-10697.690,-30328.230,-28898.430,-104974.000,0.000
-28797.090,-29134.860,-29796.850,-35640.070,-10679.490,-30279.650,-28850.620,-104784.600,0.000
-28751.000,-29084.410,-29747.200,-35566.700,-10658.800,-30225.880,-28801.480,-104582.600,0.000
-28703.300,-29034.000,-29697.850,-35520.430,-10640.620,-30173.250,-28755.790,-104418.100,0.000
-28657.320,-28985.680,-29649.800,-35445.360,-10622.320,-30122.600,-28707.570,-104225.100,0.000
-28613.740,-28941.190,-29605.320,-35399.580,-10608.030,-30074.780,-28665.870,-104059.000,0.000
-28574.080,-28900.960,-29563.710,-35345.480,-10595.840,-30033.550,-28624.700,-103884.600,0.000
-28538.480,-28865.300,-29526.600,-35282.730,-10589.010,-29997.060,-28589.940,-103691.400,0.000
-28496.500,-28823.410,-29483.210,-35236.820,-10576.620,-29953.580,-28549.790,-103515.700,0.000
-28444.390,-28769.140,-29427.840,-35152.700,-10551.070,-29897.900,-28494.180,-103290.900,0.000
-28389.480,-28711.480,-29370.670,-35094.800,-10524.520,-29838.380,-28441.020,-103089.500,0.000
-28337.630,-28657.520,-29316.000,-35026.440,-10499.630,-29783.300,-28388.600,-102876.900,0.000
-28294.480,-28613.140,-29270.380,-34954.840,-10484.880,-29735.670,-28346.170,-102654.200,0.000
-28258.180,-28576.350,-29232.210,-34914.900,-10478.200,-29694.480,-28310.140,-102480.600,0.000
-28221.940,-28540.280,-29193.970,-34844.630,-10470.100,-29656.250,-28268.910,-102279.700,0.000
-28178.220,-28497.380,-29149.540,-34795.380,-10456.430,-29611.460,-28223.060,-102120.000,0.000
-28125.990,-28443.750,-29094.800,-34729.100,-10430.660,-29556.460,-28162.800,-101965.000,0.000
-28078.120,-28392.860,-29044.580,-34659.940,-10409.950,-29505.310,-28110.890,-101804.000,0.000
-28035.970,-28348.390,-29000.770,-34623.070,-10396.880,-29461.380,-28069.890,-101694.900,0.000
-27994.710,-28306.480,-28957.150,-34555.630,-10382.910,-29418.030,-28026.540,-101546.300,0.000
-27956.780,-28270.230,-28918.720,-34517.570,-10375.050,-29377.310,-27990.980,-101408.400,0.000
-27915.160,-28230.680,-28876.140,-34465.840,-10363.520,-29335.330,-27948.930,-101252.500,0.000
-27864.400,-28182.790,-28824.860,-34396.540,-10345.840,-29286.600,-27901.830,-101067.400,0.000
-27808.060,-28129.230,-28767.700,-34346.700,-10323.000,-29232.070,-27851.160,-100902.300,0.000
-27753.770,-28075.170,-28710.410,-34264.940,-10298.100,-29177.020,-27797.190,-100690.500,0.000
-27706.770,-28027.410,-28661.610,-34214.130,-10281.520,-29126.670,-27753.130,-100508.700,0.000
-27663.390,-27981.860,-28616.010,-34154.610,-10264.980,-29078.310,-27705.490,-100321.200,0.000
-27618.190,-27934.450,-28569.480,-34083.450,-10246.720,-29028.470,-27657.290,-100109.700,0.000
-27568.430,-27885.900,-28520.350,-34034.300,-10227.330,-28978.940,-27609.760,-99930.200,0.000
