EEG 1, EEG 2, EEG 3, EEG 4, EEG 5, EEG 6, EEG 7, EEG 8, TRIG
250146.100,253352.500,261611.600,750000.100,77626.090,264119.500,250690.600,750000.100,0.000
245534.800,248654.500,256261.300,750000.100,77298.510,259174.600,245946.000,750000.100,0.000
241451.000,244493.700,251649.100,708587.300,76918.080,254793.700,241701.300,750000.100,0.000
237814.100,240803.000,247639.300,646653.800,76604.700,250896.700,238054.900,750000.100,0.000
234520.800,237462.300,244081.100,599641.800,76339.340,247372.600,234943.700,750000.100,0.000
231534.900,234434.900,240853.800,561043.000,76018.200,244174.800,231988.000,750000.100,0.000
228798.200,231654.800,237881.500,526701.300,75624.800,241255.900,229139.800,750000.100,0.000
226320.700,229136.100,235190.600,496188.700,75263.240,238611.900,226529.700,750000.100,0.000
224040.500,226812.800,232744.500,470071.300,74962.390,236157.700,224228.800,750000.100,0.000
221922.300,224652.400,230509.200,450664.000,74726.630,233879.900,222274.100,750000.100,0.000
219941.900,222648.000,228405.300,433945.600,74437.030,231763.700,220328.400,750000.100,0.000
218107.100,220782.200,226430.000,417408.000,74105.700,229816.000,218394.400,750000.100,0.000
216415.000,219052.000,224603.900,401508.000,73790.350,228010.400,216578.800,750000.100,0.000
214852.900,217459.400,222943.700,387483.900,73551.370,226329.100,215002.600,750000.100,0.000
213378.600,215964.400,221410.400,378021.800,73377.020,224753.000,213693.300,750000.100,0.000
211986.900,214562.000,219946.500,369701.100,73155.660,223271.500,212340.200,750000.100,0.000
210671.300,213231.600,218536.600,360374.000,72873.930,221875.500,210929.200,750000.100,0.000
209459.500,211995.000,217229.300,350698.800,72613.760,220582.500,209593.200,750000.100,0.000
208338.800,210855.700,216042.100,342035.700,72431.630,219377.800,208463.600,750000.100,0.000
207270.800,209770.100,214941.500,337121.400,72309.060,218238.600,207561.100,750000.100,0.000
206256.300,208747.000,213878.400,332778.100,72143.120,217161.200,206587.300,750000.100,0.000
205277.900,207754.800,212830.600,326978.300,71911.470,216132.700,205528.600,750000.100,0.000
204378.900,206844.200,211863.500,320448.300,71701.540,215183.200,204521.100,750000.100,0.000
203565.300,206022.800,211009.700,314557.700,71581.110,214309.600,203703.400,749297.800,0.000
202766.500,205209.900,210197.300,311992.200,71496.350,213453.600,203060.100,747183.100,0.000
202007.800,204445.000,209407.100,309744.500,71372.160,212650.300,202343.100,745506.500,0.000
201280.600,203702.700,208623.200,305885.500,71186.550,211882.400,201533.700,742994.400,0.000
200615.800,203023.000,207899.100,301111.400,71017.400,211172.000,200755.100,739448.400,0.000
200004.900,202401.000,207253.400,296769.300,70919.950,210511.200,200136.000,736169.900,0.000
199407.200,201790.500,206647.800,295530.600,70867.020,209867.000,199686.800,734502.300,0.000
198842.400,201224.100,206060.400,294502.900,70780.910,209264.500,199158.100,733677.600,0.000
198286.600,200660.500,205459.000,291777.300,70623.830,208674.000,198512.900,731840.300,0.000
197777.100,200140.600,204899.100,288049.800,70479.260,208133.500,197894.900,728831.100,0.000
197323.300,199686.800,204421.200,284664.900,70417.300,207647.300,197438.400,725889.300,0.000
196885.000,199239.200,203988.700,284251.700,70409.430,207174.600,197149.700,724808.400,0.000
196437.400,198790.100,203530.200,283943.300,70334.150,206704.100,196746.700,724479.200,0.000
196005.600,198352.700,203061.900,281920.700,70202.540,206254.400,196239.000,723101.100,0.000
195618.900,197954.000,202632.800,278858.900,70084.260,205843.000,195746.700,720552.300,0.000
195266.000,197595.800,202262.300,276067.100,70030.790,205464.800,195392.100,718037.700,0.000
194929.500,197248.900,201931.400,276155.600,70032.400,205097.000,195200.600,717343.000,0.000
194615.800,196929.400,201602.300,276345.900,69998.420,204754.500,194916.100,717407.500,0.000
194295.300,196599.800,201243.800,274795.300,69895.790,204414.700,194511.600,716405.800,0.000
193995.900,196290.900,200906.300,272172.300,69791.000,204093.900,194103.500,714211.100,0.000
193726.600,196024.600,200627.100,269782.500,69754.520,203808.200,193831.800,712030.500,0.000
193468.800,195767.100,200384.900,270215.400,69772.770,203533.800,193725.200,711651.900,0.000
193211.500,195508.800,200124.400,270718.200,69741.650,203260.200,193510.100,712014.500,0.000
192967.800,195262.400,199854.800,269499.400,69664.400,203010.900,193196.900,711330.700,0.000
192726.000,195016.800,199582.800,267178.600,69569.180,202760.600,192858.700,709436.400,0.000
192521.000,194804.300,199365.800,265066.400,69537.090,202533.200,192642.800,707541.000,0.000
192333.500,194609.000,199191.000,265730.200,69568.470,202326.400,192597.100,707408.400,0.000
192149.100,194419.600,198999.700,266472.700,69552.460,202119.500,192439.000,708013.000,0.000
191975.400,194235.700,198793.100,265491.100,69486.750,201931.700,192180.600,707570.600,0.000
191822.100,194075.400,198604.600,263419.900,69423.450,201767.800,191921.200,705935.900,0.000
191669.300,193923.800,198444.300,261512.800,69401.370,201600.100,191759.800,704262.200,0.000
191522.000,193777.700,198315.400,262333.500,69435.610,201436.800,191752.900,704324.100,0.000
191381.500,193646.400,198178.400,263234.500,69438.730,201292.600,191656.700,705109.300,0.000
191235.100,193496.500,198010.800,262413.300,69377.670,201146.400,191439.700,704847.000,0.000
191111.100,193366.400,197861.300,260499.400,69320.270,201019.000,191219.900,703387.800,0.000
191009.500,193264.700,197755.800,258758.700,69323.130,200909.600,191117.900,701892.600,0.000
190908.500,193159.200,197673.800,259704.300,69374.720,200799.400,191162.300,702094.900,0.000
190802.900,193053.700,197569.400,260724.300,69376.780,200682.700,191093.700,702998.500,0.000
190705.400,192952.300,197447.800,260039.800,69329.480,200579.400,190917.000,702870.400,0.000
190624.500,192865.600,197335.900,258255.900,69279.050,200488.700,190727.900,701532.700,0.000
190570.400,192808.900,197275.500,256645.000,69297.480,200421.300,190662.600,700163.600,0.000
190500.400,192738.000,197224.400,257670.300,69353.710,200343.300,190732.600,700451.800,0.000
190418.700,192652.900,197141.800,258765.600,69354.600,200251.100,190684.700,701433.900,0.000
190339.100,192568.400,197039.800,258158.000,69305.970,200168.100,190525.800,701369.700,0.000
190285.400,192508.900,196960.900,256470.700,69269.670,200109.300,190368.800,700115.100,0.000
190258.400,192477.500,196928.500,254945.300,69295.240,200067.600,190327.300,698822.800,0.000
190211.400,192424.700,196898.300,256019.500,69352.460,200007.000,190410.900,699152.300,0.000
190161.400,192375.700,196850.200,257189.700,69370.970,199950.200,190397.300,700193.600,0.000
190118.800,192325.900,196784.400,256679.900,69342.270,199903.900,190278.300,700214.800,0.000
190094.700,192290.200,196732.400,255072.200,69314.280,199868.500,190144.200,699038.700,0.000
190073.200,192263.300,196705.000,253603.900,69330.730,199831.600,190108.500,697804.900,0.000
190048.000,192233.000,196696.600,254724.400,69395.110,199794.000,190216.900,698198.400,0.000
190005.800,192189.500,196655.700,255933.200,69408.520,199747.600,190213.700,699285.800,0.000
189960.300,192140.900,196588.300,255459.500,69365.870,199703.500,190093.800,699352.900,0.000
189940.100,192116.500,196544.200,253918.300,69335.300,199682.300,189972.300,698254.100,0.000
189926.600,192105.600,196532.900,252530.000,69356.480,199666.500,189957.000,697119.800,0.000
189896.000,192079.800,196529.800,253658.300,69417.370,199640.800,190073.300,697549.100,0.000
189870.400,192064.500,196514.300,254892.800,69443.380,199618.900,190089.600,698670.100,0.000
189830.500,192021.300,196457.600,254470.400,69397.430,199575.400,189969.200,698797.300,0.000
189801.000,191989.300,196407.600,252958.700,69351.740,199545.300,189844.800,697737.200,0.000
189794.600,191983.800,196400.400,251622.200,69368.730,199533.400,189834.600,696667.100,0.000
189780.100,191968.000,196406.800,252756.100,69424.880,199512.700,189950.400,697134.400,0.000
189750.800,191942.800,196385.400,253987.000,69437.480,199481.900,189961.600,698263.900,0.000
189725.800,191918.400,196345.600,253609.100,69405.840,199466.700,189873.000,698433.900,0.000
189720.800,191913.200,196320.800,252174.500,69381.700,199466.900,189774.600,697445.400,0.000
189720.900,191913.300,196323.000,250905.000,69402.700,199460.100,189771.100,696435.100,0.000
189708.700,191898.800,196332.600,252031.900,69457.780,199443.500,189888.200,696904.000,0.000
189688.200,191881.200,196320.900,253266.600,69475.040,199424.600,189912.100,698037.300,0.000
189653.000,191847.800,196272.800,252899.400,69430.420,199399.800,189814.300,698205.900,0.000
189635.100,191831.400,196235.800,251478.100,69390.010,199385.500,189705.200,697224.200,0.000
189642.400,191843.500,196247.600,250250.500,69415.940,199386.900,189708.600,696249.900,0.000
189649.600,191846.600,196277.800,251395.500,69485.140,199390.900,189841.800,696742.700,0.000
189654.900,191856.300,196287.100,252654.900,69518.220,199394.200,189884.600,697888.400,0.000
189640.400,191837.500,196252.400,252325.100,69482.280,199381.200,189800.400,698079.200,0.000
189637.600,191826.700,196224.900,250942.400,69443.560,199372.400,189697.000,697118.600,0.000
189651.700,191840.500,196238.100,249730.300,69467.170,199381.700,189707.700,696145.400,0.000
189647.700,191833.000,196252.700,250860.900,69518.760,199371.800,189826.300,696596.800,0.000
189653.000,191842.200,196264.500,252141.300,69552.200,199374.500,189869.500,697729.700,0.000
189638.300,191821.400,196233.800,251830.700,69515.360,199360.200,189781.900,697912.600,0.000
189637.800,191816.700,196213.500,250457.200,69479.410,199358.700,189683.400,696936.000,0.000
189670.800,191845.600,196245.700,249269.500,69517.860,199379.200,189705.500,695960.800,0.000
189684.600,191859.100,196281.600,250438.000,69589.120,199388.800,189844.600,696432.800,0.000
189669.400,191847.900,196272.400,251721.900,69598.510,199373.200,189869.000,697551.600,0.000
189652.000,191825.400,196235.500,251423.300,69556.300,199361.400,189782.400,697741.200,0.000
189649.000,191813.700,196207.600,250061.800,69515.630,199357.400,189682.500,696765.100,0.000
189674.600,191835.500,196232.500,248877.000,69545.490,199372.500,189701.000,695782.300,0.000
189685.300,191846.300,196265.500,250047.600,69610.310,199376.400,189834.100,696240.100,0.000
189675.800,191845.600,196266.000,251350.400,69627.120,199368.000,189864.000,697358.400,0.000
189661.000,191832.600,196238.100,251067.000,69590.380,199359.300,189782.300,697547.800,0.000
189675.900,191843.100,196233.600,249731.400,69568.470,199375.000,189700.400,696587.900,0.000
189696.300,191862.100,196251.800,248540.300,69592.520,199388.200,189711.500,695597.400,0.000
189685.500,191849.000,196260.900,249694.900,69636.050,199375.000,189827.900,696053.200,0.000
189683.700,191851.600,196266.900,251025.700,69660.830,199374.200,189872.500,697211.200,0.000
189672.800,191841.700,196243.000,250761.800,69626.940,199372.100,189799.000,697428.900,0.000
189663.500,191828.900,196216.200,249420.800,69584.020,199366.300,189697.800,696471.600,0.000
189675.200,191842.900,196232.000,248229.400,69603.420,199376.000,189707.100,695480.900,0.000
189682.600,191851.500,196263.300,249392.400,69663.150,199379.500,189837.800,695942.500,0.000
189684.400,191865.600,196276.300,250729.500,69690.150,199381.800,189880.000,697095.300,0.000
189681.600,191861.000,196259.000,250482.100,69661.090,199384.300,189813.500,697310.900,0.000
189692.100,191867.800,196250.500,249184.000,69634.450,199399.700,189736.100,696379.600,0.000
189709.000,191891.600,196272.500,248007.900,69655.550,199414.900,189750.000,695401.800,0.000
189709.000,191893.000,196297.800,249155.000,69710.270,199414.900,189877.900,695847.600,0.000
189715.600,191903.800,196313.200,250501.900,69741.380,199422.400,189925.400,697006.400,0.000
189701.500,191887.800,196284.200,250254.300,69700.880,199412.500,189841.800,697224.200,0.000
189700.500,191883.800,196264.900,248947.300,69660.730,199411.800,189744.800,696278.900,0.000
189724.500,191913.600,196292.900,247783.200,69689.160,199431.700,189762.800,695306.600,0.000
189722.600,191915.000,196315.700,248923.000,69741.560,199429.600,189890.800,695748.300,0.000
189722.900,191921.900,196326.200,250263.700,69767.760,199433.500,189941.400,696898.100,0.000
189708.700,191904.100,196296.400,250020.900,69729.310,199425.700,189863.100,697118.100,0.000
189708.900,191898.400,196275.700,248720.200,69690.060,199423.700,189764.400,696180.300,0.000
189736.800,191923.200,196304.400,247560.700,69719.120,199446.700,189782.800,695213.500,0.000
189741.500,191927.400,196332.700,248700.900,69774.730,199449.300,189912.100,695663.400,0.000
189731.700,191926.000,196332.500,250041.000,69788.950,199438.900,189946.400,696815.400,0.000
189711.600,191905.400,196299.400,249809.200,69746.030,199427.700,189865.200,697047.900,0.000
189704.900,191896.800,196272.100,248518.100,69701.860,199427.700,189770.500,696118.100,0.000
189716.500,191908.000,196281.600,247348.700,69712.410,199435.800,189775.100,695144.800,0.000
189723.900,191915.000,196308.200,248469.000,69766.770,199439.700,189903.400,695579.700,0.000
189728.400,191924.600,196323.000,249820.200,69795.650,199445.600,189953.100,696739.100,0.000
189726.000,191916.600,196309.000,249606.500,69769.010,199447.900,189885.000,696980.700,0.000
189727.900,191914.800,196293.800,248332.200,69731.100,199451.000,189792.300,696052.900,0.000
189747.200,191936.900,196316.500,247186.600,69752.470,199466.400,189805.800,695095.200,0.000
189761.900,191952.000,196354.400,248307.700,69818.180,199480.400,189945.900,695531.600,0.000
189754.600,191952.000,196357.400,249644.700,69834.360,199472.600,189980.600,696671.400,0.000
189737.600,191939.800,196327.700,249423.800,69794.580,199467.800,189902.000,696910.300,0.000
189739.200,191941.000,196308.000,248166.300,69757.920,199477.800,189816.200,696010.200,0.000
189757.300,191955.500,196323.800,247026.200,69776.700,199494.100,189831.000,695064.800,0.000
189766.100,191958.800,196349.500,248119.800,69828.460,199489.900,189953.000,695486.400,0.000
189769.400,191964.300,196362.000,249457.000,69852.060,199489.100,189999.800,696626.900,0.000
189742.400,191935.100,196323.700,249238.900,69801.280,199468.100,189912.300,696863.100,0.000
189744.900,191932.500,196308.900,247989.000,69764.980,199473.800,189825.000,695968.800,0.000
189778.600,191968.700,196344.100,246860.500,69799.590,199502.700,189850.700,695044.100,0.000
189789.900,191979.000,196375.100,247958.500,69858.230,199512.200,189985.100,695480.400,0.000
189787.400,191976.700,196376.900,249301.800,69871.470,199503.100,190023.300,696634.700,0.000
189774.700,191962.000,196346.800,249103.800,69829.890,199493.700,189942.300,696903.600,0.000
189778.000,191957.500,196328.300,247864.900,69790.730,199494.500,189849.400,696030.100,0.000
189800.600,191980.100,196350.000,246721.500,69810.230,199510.200,189861.200,695095.600,0.000
189811.100,191991.800,196379.700,247811.500,69867.450,199521.300,189994.700,695531.000,0.000
189796.400,191980.000,196373.700,249152.900,69874.590,199507.800,190027.000,696685.300,0.000
189789.600,191973.100,196354.500,248959.700,69842.410,199507.100,189957.300,696958.800,0.000
189805.500,191988.000,196351.700,247731.800,69818.720,199528.800,189882.800,696092.400,0.000
189828.300,192011.200,196371.800,246601.100,69839.020,199545.000,189892.000,695172.100,0.000
189830.100,192005.800,196388.500,247662.300,69881.300,199536.100,190003.900,695586.900,0.000
189846.300,192022.200,196412.000,249004.900,69916.080,199546.900,190061.100,696737.000,0.000
189848.000,192016.600,196397.500,248818.900,69885.510,199544.000,189991.700,697012.600,0.000
189851.800,192008.300,196377.800,247593.900,69843.210,199537.400,189893.500,696140.600,0.000
189878.800,192033.800,196402.800,246486.300,69867.000,199555.500,189905.300,695238.400,0.000
189894.800,192051.900,196439.000,247553.100,69929.130,199573.900,190039.500,695660.400,0.000
189910.200,192074.000,196464.500,248896.600,69968.560,199594.600,190106.600,696804.600,0.000
189891.800,192058.300,196434.200,248703.500,69926.010,199584.600,190030.400,697066.400,0.000
189873.200,192035.600,196397.700,247476.200,69867.980,199564.700,189921.100,696187.900,0.000
189880.000,192043.300,196406.200,246369.700,69874.330,199563.800,189916.200,695291.400,0.000
189889.900,192050.300,196436.100,247431.200,69929.940,199569.300,190040.600,695708.600,0.000
189885.600,192046.400,196441.400,248753.000,69948.180,199561.800,190081.300,696830.900,0.000
189874.100,192036.900,196417.300,248568.900,69913.220,199560.800,190012.500,697097.900,0.000
189878.300,192039.500,196402.400,247366.100,69880.770,199569.000,189929.200,696237.500,0.000
189876.000,192043.900,196406.000,246249.500,69885.590,199567.700,189926.700,695318.300,0.000
189873.500,192043.800,196429.100,247305.600,69933.700,199570.700,190049.200,695723.600,0.000
189882.200,192060.900,196449.000,248644.800,69964.180,199581.700,190104.900,696849.800,0.000
189880.000,192061.600,196434.400,248466.800,69933.880,199583.800,190037.400,697108.600,0.000
189878.600,192049.700,196415.000,247263.600,69891.310,199577.400,189940.900,696234.700,0.000
189887.700,192059.000,196425.000,246150.200,69901.150,199582.700,189941.900,695304.300,0.000
189891.600,192064.300,196451.000,247203.300,69954.340,199589.300,190068.600,695686.800,0.000
189898.700,192078.000,196468.500,248546.700,69983.670,199597.900,190124.000,696788.300,0.000
189879.500,192057.900,196438.000,248358.700,69942.450,199585.700,190044.800,697014.300,0.000
189879.300,192059.700,196422.700,247164.300,69909.470,199593.800,189958.900,696128.100,0.000
189895.400,192080.900,196441.400,246068.300,69927.340,199608.000,189968.900,695211.700,0.000
189897.500,192083.900,196464.300,247103.500,69973.130,199609.000,190084.600,695580.400,0.000
189901.700,192095.000,196477.600,248440.200,69998.160,199614.400,190133.700,696678.900,0.000
189878.900,192071.100,196440.500,248257.300,69950.320,199600.900,190051.300,696918.500,0.000
189872.500,192062.800,196415.100,247067.200,69906.250,199601.200,189959.300,696046.600,0.000
189886.100,192078.100,196429.900,245967.800,69921.000,199610.000,189964.200,695137.900,0.000
189890.000,192082.300,196456.500,246998.200,69974.640,199617.300,190089.300,695515.100,0.000
189877.700,192076.900,196456.400,248322.300,69989.400,199607.000,190128.200,696609.600,0.000
189860.700,192061.700,196428.100,248151.600,69950.590,199598.900,190051.200,696872.300,0.000
189856.700,192057.200,196407.700,246968.500,69909.020,199598.000,189960.600,696018.800,0.000
189873.000,192075.300,196426.500,245870.400,69924.750,199609.000,189969.300,695122.800,0.000
189872.200,192069.000,196444.400,246891.700,69965.970,199601.000,190079.000,695511.400,0.000
189865.400,192067.100,196446.400,248227.000,69982.780,199593.600,190120.600,696636.700,0.000
189850.800,192053.100,196417.300,248058.600,69942.550,199587.600,190046.600,696918.500,0.000
189851.100,192048.100,196396.600,246875.300,69900.970,199591.100,189956.000,696078.800,0.000
189870.600,192066.000,196416.300,245779.900,69913.660,199598.800,189958.400,695203.800,0.000
189862.700,192056.700,196430.000,246790.500,69952.110,199590.900,190068.300,695592.100,0.000
189858.700,192060.900,196439.300,248122.300,69973.930,199591.300,190117.400,696709.800,0.000
189847.000,192055.800,196420.000,247964.600,69941.120,199589.300,190048.300,696992.500,0.000
189840.300,192047.500,196397.100,246789.200,69898.550,199587.300,189953.500,696153.300,0.000
189863.100,192071.600,196422.900,245697.600,69921.890,199606.700,189963.800,695261.700,0.000
189865.800,192074.500,196443.700,246710.300,69965.700,199603.000,190074.400,695639.800,0.000
189872.000,192081.600,196455.000,248054.700,69992.520,199605.400,190127.900,696760.100,0.000
189856.700,192067.200,196425.900,247903.300,69955.330,199599.800,190057.300,697041.700,0.000
189850.000,192059.700,196402.500,246735.600,69915.010,199602.900,189965.900,696197.800,0.000
189861.600,192074.600,196419.500,245632.200,69930.300,199615.400,189969.100,695276.800,0.000
189859.500,192075.300,196442.600,246637.400,69977.590,199615.300,190085.400,695624.400,0.000
189863.600,192085.600,196459.100,247980.000,70005.480,199618.400,190138.300,696719.600,0.000
189855.400,192077.100,196439.600,247829.300,69971.780,199612.400,190067.400,696971.800,0.000
189857.000,192078.100,196423.700,246674.100,69933.780,199616.400,189979.300,696114.200,0.000
189880.000,192095.000,196442.900,245581.900,69948.000,199625.300,189983.400,695190.000,0.000
189891.000,192102.000,196470.100,246583.700,69999.410,199631.800,190107.000,695529.600,0.000
189894.600,192107.900,196482.500,247917.000,70024.530,199634.600,190158.900,696604.600,0.000
189873.400,192087.500,196447.300,247756.700,69980.090,199621.000,190078.100,696837.500,0.000
189860.000,192069.300,196414.000,246588.100,69929.310,199610.000,189977.000,695956.200,0.000
189877.100,192088.500,196432.700,245500.500,69947.820,199623.700,189984.300,695021.100,0.000
189878.200,192090.100,196456.500,246490.700,69995.480,199627.100,190102.600,695344.300,0.000
189870.500,192087.200,196461.900,247810.400,70012.550,199617.100,190142.800,696395.600,0.000
189858.800,192072.300,196437.300,247665.800,69976.250,199609.200,190068.400,696633.800,0.000
189864.800,192072.800,196423.200,246520.700,69939.870,199616.500,189980.600,695764.500,0.000
189884.300,192094.500,196444.900,245453.500,69958.730,199632.000,189988.300,694845.100,0.000
189890.400,192099.000,196470.600,246441.500,70007.370,199635.800,190104.800,695173.200,0.000
189889.600,192100.600,196479.300,247751.000,70028.200,199637.400,190154.300,696211.200,0.000
189876.400,192086.400,196451.400,247609.800,69989.570,199625.600,190080.900,696450.000,0.000
189858.700,192066.100,196414.900,246460.000,69933.520,199609.500,189975.800,695567.600,0.000
189868.900,192080.500,196429.000,245432.000,69949.160,199620.500,189983.400,694691.000,0.000
189878.300,192090.100,196457.700,246399.400,70001.910,199629.900,190098.000,695028.100,0.000
189889.300,192104.000,196477.400,247671.400,70034.730,199640.100,190154.600,696049.200,0.000
189885.800,192101.500,196461.900,247540.100,70006.470,199641.800,190091.200,696304.100,0.000
189870.300,192083.200,196429.700,246469.000,69954.800,199628.700,189993.700,695500.900,0.000
189874.400,192089.500,196438.300,245609.100,69963.730,199631.100,189999.400,694796.600,0.000
189867.000,192084.300,196446.600,246427.300,69990.110,199621.100,190076.700,695092.400,0.000
189876.800,192099.200,196466.200,247535.100,70020.600,199628.200,190126.500,695988.900,0.000
189873.900,192095.100,196455.100,247440.000,69998.420,199632.600,190076.800,696253.900,0.000
189885.400,192102.900,196451.500,246462.800,69977.590,199648.300,190016.700,695519.400,0.000
189898.900,192119.600,196467.600,245682.300,69995.480,199657.000,190032.700,694879.600,0.000
189882.200,192098.000,196461.000,246395.300,70006.830,199637.800,190090.200,695098.800,0.000
189891.400,192112.000,196478.400,247434.900,70035.620,199648.600,190140.400,695920.500,0.000
189876.100,192099.700,196453.200,247334.000,70001.910,199638.100,190076.100,696149.400,0.000
189867.700,192087.300,196430.500,246361.700,69962.130,199631.900,189996.300,695392.400,0.000
189884.100,192107.400,196453.300,245624.300,69986.270,199647.600,190017.200,694775.100,0.000
189881.300,192099.300,196461.900,246312.700,70009.780,199638.800,190081.800,694970.100,0.000
189896.300,192118.300,196483.100,247330.600,70043.580,199650.300,190138.600,695754.900,0.000
189887.600,192110.800,196463.000,247247.800,70014.520,199647.200,190085.600,695978.800,0.000
189891.100,192108.200,196448.400,246300.200,69984.030,199652.900,190018.100,695223.600,0.000
189908.400,192123.900,196468.500,245580.100,70005.480,199661.900,190036.700,694604.800,0.000
189901.500,192111.600,196470.900,246244.100,70023.550,199650.500,190096.500,694763.400,0.000
189904.400,192116.100,196481.700,247242.700,70044.110,199650.300,190140.800,695503.600,0.000
189896.900,192108.200,196466.000,247173.600,70020.240,199649.900,190090.600,695713.600,0.000
189885.500,192092.500,196440.200,246233.600,69977.410,199637.800,190007.500,694940.200,0.000
189877.000,192087.400,196437.100,245517.000,69976.250,199627.800,190004.600,694313.200,0.000
189885.000,192099.000,196457.800,246180.900,70012.100,199640.100,190082.100,694478.400,0.000
189909.600,192128.700,196491.600,247182.200,70057.520,199663.500,190149.500,695213.900,0.000
189892.500,192118.400,196469.100,247108.000,70025.600,199656.500,190090.300,695405.600,0.000
189876.200,192098.900,196438.300,246180.400,69980.010,199645.200,190004.900,694634.900,0.000
189898.100,192117.700,196461.000,245511.700,70003.520,199658.800,190031.000,694051.300,0.000
189897.400,192113.500,196470.100,246147.700,70027.040,199660.800,190098.300,694203.000,0.000
189898.600,192115.800,196479.200,247111.400,70047.510,199659.200,190143.100,694916.100,0.000
189889.500,192110.200,196462.300,247050.400,70021.850,199655.200,190089.600,695139.200,0.000
189888.300,192106.500,196449.000,246144.400,69991.010,199656.800,190020.500,694402.500,0.000
189914.300,192137.100,196482.000,245503.600,70025.070,199682.100,190056.100,693867.800,0.000
189918.200,192139.600,196495.400,246116.800,70052.700,199688.300,190122.300,694018.900,0.000
189931.600,192153.500,196514.500,247064.800,70078.350,199689.100,190161.100,694719.700,0.000
189926.600,192148.100,196499.500,247011.900,70051.800,199683.600,190108.100,694940.300,0.000
189916.100,192132.400,196472.600,246119.100,70010.310,199673.000,190032.300,694214.100,0.000
189925.300,192139.600,196483.500,245481.100,70022.740,199671.800,190045.100,693677.400,0.000
189916.900,192132.000,196487.000,246054.500,70037.230,199667.200,190099.500,693797.200,0.000
189920.400,192141.300,196501.300,246980.300,70061.990,199673.800,190148.400,694480.300,0.000
189921.500,192143.700,196494.000,246943.700,70047.150,199679.000,190108.600,694720.300,0.000
189917.800,192133.000,196473.300,246062.100,70012.730,199672.300,190034.700,694002.300,0.000
189931.800,192146.200,196490.500,245443.700,70033.830,199682.900,190058.500,693484.900,0.000
189925.500,192131.000,196490.000,245993.900,70043.400,199667.900,190102.300,693593.300,0.000
189928.400,192129.700,196496.500,246897.900,70057.790,199656.400,190137.000,694246.000,0.000
189944.800,192147.500,196503.700,246883.800,70058.510,199681.000,190118.000,694502.200,0.000
189951.100,192152.500,196496.700,246035.100,70037.230,199694.200,190062.200,693822.300,0.000
189938.700,192142.900,196489.300,245402.700,70032.580,199681.500,190061.000,693299.800,0.000
189934.000,192145.000,196495.700,245947.300,70051.890,199683.000,190115.300,693420.200,0.000
189930.500,192148.700,196500.800,246840.400,70069.860,199680.000,190155.300,694072.900,0.000
189929.000,192150.900,196490.700,246808.000,70053.410,199687.800,190116.000,694308.100,0.000
189929.500,192141.000,196474.900,245951.200,70019.970,199683.500,190047.100,693608.400,0.000
189945.200,192155.600,196495.500,245348.200,70039.550,199689.100,190065.800,693103.600,0.000
189941.400,192150.400,196503.100,245891.400,70059.040,199689.300,190120.500,693200.300,0.000
189941.400,192153.300,196512.300,246791.200,70079.520,199688.400,190163.800,693828.900,0.000
189924.600,192136.400,196486.100,246751.600,70046.700,199674.900,190106.800,694033.400,0.000
189917.900,192129.100,196467.500,245895.000,70015.320,199672.500,190040.800,693318.000,0.000
189934.500,192153.800,196490.300,245292.000,70042.410,199689.100,190069.200,692805.500,0.000
189933.300,192152.000,196498.000,245836.300,70064.770,199691.800,190130.100,692897.400,0.000
189932.000,192153.600,196505.400,246732.500,70082.910,199684.300,190170.000,693510.800,0.000
189918.800,192139.600,196484.600,246690.000,70054.300,199676.300,190116.000,693695.800,0.000
189923.900,192135.500,196474.800,245839.300,70028.020,199683.100,190055.300,692963.500,0.000
189942.400,192154.800,196496.600,245234.200,70048.310,199690.500,190073.100,692422.100,0.000
189947.900,192159.200,196511.200,245786.400,70072.900,199694.000,190130.800,692496.500,0.000
189953.900,192167.700,196525.400,246700.200,70098.020,199699.200,190176.300,693110.400,0.000
189929.100,192147.300,196493.500,246654.300,70058.230,199680.900,190116.200,693286.400,0.000
189923.200,192144.700,196474.900,245800.800,70025.430,199681.500,190051.200,692552.900,0.000
189943.700,192170.600,196502.100,245209.700,70056.800,199705.300,190085.000,692033.300,0.000
189937.400,192162.400,196504.800,245758.700,70071.470,199700.600,190134.500,692116.100,0.000
189934.600,192161.400,196509.900,246654.100,70087.120,199694.800,190173.100,692711.700,0.000
189922.700,192146.400,196486.900,246611.500,70056.980,199686.100,190120.400,692888.400,0.000
189926.600,192140.400,196473.200,245768.000,70028.290,199689.400,190056.100,692160.300,0.000
189948.400,192160.400,196499.900,245192.500,70056.000,199705.300,190086.900,691641.400,0.000
189938.200,192148.500,196499.900,245730.900,70064.140,199691.300,190129.400,691706.300,0.000
189940.500,192157.200,196510.800,246611.100,70086.670,199692.800,190172.900,692283.600,0.000
189927.800,192148.800,196491.800,246569.900,70060.740,199686.200,190122.500,692452.400,0.000
189913.300,192129.800,196463.700,245726.200,70017.730,199672.300,190044.600,691713.200,0.000
189920.700,192142.400,196476.000,245167.300,70035.530,199676.300,190062.800,691200.300,0.000
189915.200,192133.500,196479.800,245687.000,70052.250,199676.300,190113.200,691251.700,0.000
189928.900,192142.800,196500.900,246543.000,70083.810,199683.900,190166.500,691789.300,0.000
189932.700,192145.800,196495.900,246516.400,70070.300,199687.300,190128.600,691945.900,0.000
189942.500,192153.100,196490.800,245708.600,70050.730,199697.800,190074.400,691211.000,0.000
189964.700,192175.200,196518.400,245209.500,70079.070,199715.600,190105.100,690739.900,0.000
189957.800,192170.600,196521.300,245683.500,70087.740,199709.200,190136.700,690752.400,0.000
189937.800,192156.500,196510.800,246460.700,70085.690,199688.300,190154.600,691204.800,0.000
189924.400,192147.000,196491.200,246431.400,70057.160,199681.400,190107.600,691340.800,0.000
189927.000,192148.700,196480.500,245646.400,70034.370,199689.900,190052.200,690616.600,0.000
189929.100,192155.500,196489.800,245181.800,70049.030,199690.000,190071.200,690166.600,0.000
189921.700,192143.500,196486.100,245618.500,70056.270,199678.300,190103.000,690158.700,0.000
189931.800,192153.500,196503.800,246377.000,70086.850,199691.900,190157.100,690601.400,0.000
189934.400,192154.100,196500.100,246368.700,70076.660,199700.200,190130.200,690743.900,0.000
189941.000,192156.100,196493.200,245610.500,70054.840,199704.400,190076.700,690030.700,0.000
189960.300,192180.700,196520.100,245205.800,70081.750,199716.300,190106.700,689627.500,0.000
189960.900,192176.500,196524.300,245607.400,70087.480,199711.100,190130.800,689606.600,0.000
189964.300,192179.300,196534.300,246302.900,70104.730,199709.500,190164.500,689979.700,0.000
189961.500,192178.000,196527.400,246297.500,70090.960,199713.000,190136.100,690105.100,0.000
189953.900,192164.900,196503.600,245556.100,70053.140,199702.800,190070.600,689390.300,0.000
189956.500,192168.000,196508.600,245186.600,70065.210,199698.900,190086.800,689013.600,0.000
189949.300,192161.700,196505.500,245541.500,70072.370,199698.200,190111.200,688967.900,0.000
189949.200,192167.900,196514.800,246189.000,70095.520,199705.300,190156.200,689295.900,0.000
189944.300,192167.600,196505.600,246195.200,70083.630,199710.900,190129.100,689419.600,0.000
189938.100,192160.100,196487.800,245486.600,70054.660,199709.400,190071.100,688729.300,0.000
189951.700,192174.300,196509.800,245181.500,70078.890,199713.800,190100.500,688418.900,0.000
189945.700,192162.600,196507.100,245497.600,70076.300,199704.400,190114.100,688362.500,0.000
189941.600,192157.000,196509.600,246093.400,70084.790,199693.300,190140.800,688658.100,0.000
189935.100,192149.800,196496.500,246105.800,70067.720,199690.400,190110.900,688788.900,0.000
189933.000,192145.300,196481.300,245434.100,70042.860,199689.900,190059.200,688136.400,0.000
189941.300,192161.100,196496.500,245172.500,70064.590,199695.100,190090.200,687877.900,0.000
189934.400,192151.400,196490.000,245463.700,70064.500,199694.600,190104.300,687836.700,0.000
189928.100,192148.700,196490.200,246016.600,70076.570,199692.500,190137.600,688112.600,0.000
189923.900,192144.400,196480.300,246037.000,70065.660,199694.800,190112.700,688263.400,0.000
189931.200,192148.800,196478.000,245392.000,70051.350,199701.200,190071.000,687681.300,0.000
189929.500,192152.700,196486.100,245167.000,70064.950,199697.600,190097.200,687459.500,0.000
189922.100,192141.300,196478.500,245421.200,70059.580,199690.400,190102.500,687487.700,0.000
189923.400,192141.100,196481.800,245940.500,70070.580,199678.500,190124.900,687781.000,0.000
189914.500,192139.100,196470.600,245971.700,70057.440,199685.100,190102.800,687916.100,0.000
189909.500,192129.200,196456.300,245346.000,70032.490,199680.600,190053.800,687502.100,0.000
189918.100,192141.200,196472.200,245176.200,70053.500,199682.000,190085.900,687403.000,0.000
189914.800,192134.900,196467.600,245395.200,70046.880,199677.600,190084.400,687467.200,0.000
189926.900,192146.400,196484.000,245870.200,70070.400,199684.500,190122.400,687720.500,0.000
189914.100,192135.100,196467.500,245902.800,70049.560,199674.900,190091.000,687844.200,0.000
189914.400,192133.200,196458.500,245308.400,70028.820,199677.400,190050.200,687475.100,0.000
189925.400,192147.800,196479.400,245179.500,70056.980,199682.800,190091.100,687412.800,0.000
189913.800,192132.000,196466.800,245357.300,70046.880,199673.900,190085.800,687443.700,0.000
189922.900,192143.700,196482.700,245799.700,70072.370,199685.000,190130.400,687676.700,0.000
189908.000,192134.500,196468.400,245839.000,70056.450,199678.800,190102.600,687792.400,0.000
189905.900,192128.500,196458.300,245255.200,70034.550,199677.200,190056.600,687432.100,0.000
189932.800,192157.400,196493.800,245173.800,70074.780,199696.700,190109.800,687410.300,0.000
189935.700,192158.100,196493.600,245333.600,70072.900,199700.500,190109.300,687447.300,0.000
189946.800,192170.800,196510.200,245718.900,70095.250,199706.600,190146.500,687634.200,0.000
189946.600,192169.000,196503.900,245768.200,70085.060,199703.600,190125.600,687753.400,0.000
189937.200,192150.200,196481.000,245193.700,70049.300,199687.200,190067.300,687411.500,0.000
189948.200,192165.500,196500.700,245132.300,70075.590,199692.500,190104.700,687408.800,0.000
189943.200,192160.100,196495.300,245249.700,70068.520,199693.800,190094.900,687442.600,0.000
189949.700,192170.500,196508.100,245603.300,70090.420,199702.300,190132.800,687614.900,0.000
189941.100,192167.300,196499.800,245659.400,70081.570,199702.800,190116.900,687738.100,0.000
189939.900,192161.000,196490.300,245123.200,70065.130,199705.300,190082.200,687431.800,0.000
189946.100,192171.600,196504.400,245108.600,70087.740,199707.500,190123.000,687466.300,0.000
189935.800,192156.000,196486.400,245195.300,70067.800,199698.400,190103.100,687462.300,0.000
189947.200,192164.800,196500.300,245508.500,70088.990,199704.400,190139.600,687648.100,0.000
189935.800,192154.000,196486.700,245572.700,70073.080,199696.600,190115.500,687792.800,0.000
189939.700,192152.100,196478.500,245057.800,70053.590,199693.400,190074.100,687480.800,0.000
189953.500,192166.300,196500.100,245077.200,70082.470,199697.600,190118.200,687550.600,0.000
189949.300,192160.200,196490.700,245140.400,70070.940,199699.000,190099.600,687547.400,0.000
189948.600,192163.200,196495.900,245410.000,70083.360,199698.400,190126.700,687704.600,0.000
189938.500,192158.700,196486.100,245488.500,70074.780,199696.800,190112.200,687904.300,0.000
189939.400,192159.400,196480.300,244999.700,70061.010,199701.600,190080.900,687595.600,0.000
189934.900,192161.000,196488.500,245049.100,70079.160,199695.500,190116.600,687737.800,0.000
189923.000,192143.900,196468.700,245083.100,70055.730,199687.500,190085.500,687710.100,0.000
189938.100,192157.300,196487.400,245333.300,70080.140,199700.000,190123.400,687849.600,0.000
189944.200,192156.300,196490.500,245433.900,70080.320,199698.700,190117.100,688147.800,0.000
189937.800,192147.000,196476.000,244957.400,70056.540,199690.400,190073.300,687785.800,0.000
189942.600,192158.100,196491.700,245041.800,70082.290,199695.600,190119.600,688019.200,0.000
189937.000,192151.100,196479.700,245054.100,70066.910,199699.300,190094.800,688029.300,0.000
189933.600,192148.600,196482.000,245265.300,70074.870,199692.700,190116.200,688131.600,0.000
189929.900,192146.000,196478.000,245363.400,70070.300,199687.200,190101.500,688398.600,0.000
189951.900,192167.400,196493.000,244933.600,70078.980,199711.800,190092.800,688046.800,0.000
189963.500,192183.500,196514.800,245047.800,70110.190,199719.200,190145.800,688263.800,0.000
189942.800,192157.200,196483.000,245022.200,70074.330,199697.900,190094.300,688190.900,0.000
189941.000,192156.700,196486.100,245199.800,70083.540,199690.900,190112.100,688189.600,0.000
189938.300,192155.400,196486.000,245302.600,70086.050,199698.800,190113.100,688376.400,0.000
189939.100,192155.600,196480.700,244859.700,70074.420,199704.000,190085.900,687913.500,0.000
189944.200,192164.100,196496.700,245000.100,70099.900,199702.400,190131.100,688050.900,0.000
189933.300,192148.600,196478.400,244969.900,70075.490,199695.800,190091.200,687870.100,0.000
189927.700,192144.900,196478.600,245128.700,70079.610,199690.800,190104.700,687725.100,0.000
189916.200,192134.000,196466.400,245223.000,70064.500,199681.800,190084.800,687753.000,0.000
189924.400,192142.000,196466.800,244792.800,70054.570,199691.600,190060.400,687352.100,0.000
189945.000,192167.800,196497.900,244971.000,70093.910,199708.000,190120.400,687395.700,0.000
189943.000,192160.600,196484.500,244938.600,70071.470,199705.400,190077.800,687270.500,0.000
189945.700,192161.800,196491.400,245074.900,70082.650,199700.600,190096.100,687228.900,0.000
189940.300,192160.200,196485.800,245188.400,70077.910,199696.400,190085.900,687312.500,0.000
189932.400,192151.300,196470.300,244761.000,70055.830,199689.400,190049.300,686960.300,0.000
189938.600,192156.300,196487.600,244932.500,70082.200,199687.500,190097.900,687060.800,0.000
189921.100,192134.900,196461.800,244878.500,70047.780,199674.400,190047.900,686943.000,0.000
189919.400,192133.300,196464.900,245005.600,70057.340,199671.400,190073.100,686888.200,0.000
189918.700,192134.600,196464.600,245129.900,70056.540,199672.100,190072.900,686949.200,0.000
189907.200,192120.500,196444.100,244703.000,70028.380,199659.800,190029.900,686671.000,0.000
189925.300,192147.400,196475.400,244916.000,70072.550,199681.600,190101.500,686865.000,0.000
189920.000,192139.900,196460.900,244863.200,70047.780,199685.000,190062.600,686771.100,0.000
189917.200,192136.300,196460.900,244965.000,70049.740,199676.400,190074.800,686755.700,0.000
189911.800,192133.000,196457.200,245083.000,70044.910,199673.100,190068.200,686941.400,0.000
189910.400,192130.800,196449.700,244675.100,70029.630,199673.500,190040.600,686593.100,0.000
189907.700,192135.100,196459.100,244870.800,70051.800,199667.800,190083.900,686820.100,0.000
189894.400,192119.100,196438.900,244803.500,70024.270,199664.000,190034.600,686706.900,0.000
189913.900,192137.500,196462.700,244916.500,70052.700,199676.500,190070.200,686659.900,0.000
189902.000,192121.600,196449.900,245033.500,70040.980,199663.200,190060.200,686868.100,0.000
189896.800,192114.000,196435.500,244622.100,70021.230,199658.500,190025.900,686480.800,0.000
189906.500,192124.500,196454.000,244828.400,70050.730,199656.800,190077.600,686776.000,0.000
189886.900,192095.300,196421.800,244738.400,70008.260,199638.100,190015.500,686672.400,0.000
189904.200,192114.200,196442.400,244833.900,70032.580,199651.300,190049.700,686579.800,0.000
189902.400,192116.900,196441.100,244965.400,70030.160,199654.000,190050.100,686810.900,0.000
189900.800,192109.500,196432.300,244565.700,70013.800,199651.200,190021.500,686456.200,0.000
189917.700,192131.000,196461.000,244796.900,70055.550,199664.800,190084.300,686784.800,0.000
189911.900,192122.000,196441.300,244710.800,70027.570,199664.300,190036.200,686697.400,0.000
189898.800,192108.900,196430.500,244771.200,70022.380,199649.500,190045.400,686644.000,0.000
189907.400,192118.900,196438.300,244921.800,70030.610,199656.300,190054.100,686932.100,0.000
189917.400,192119.900,196440.000,244550.400,70025.160,199663.000,190036.200,686650.400,0.000
189936.800,192140.600,196469.600,244793.000,70066.200,199673.200,190099.100,686898.600,0.000
189920.000,192116.500,196441.700,244715.200,70028.020,199654.200,190035.400,686859.500,0.000
189926.700,192116.800,196450.000,244803.600,70037.670,199650.300,190054.600,686829.600,0.000
189939.700,192133.600,196462.500,244968.700,70051.350,199664.700,190068.300,686972.300,0.000
189949.400,192137.300,196461.900,244605.700,70045.900,199673.300,190052.500,686809.600,0.000
189972.800,192161.400,196488.700,244856.400,70084.520,199688.100,190116.400,687071.900,0.000
189976.500,192153.000,196471.700,244791.000,70059.400,199685.800,190067.200,687014.400,0.000
189972.500,192136.100,196463.000,244850.800,70057.440,199667.600,190073.700,686957.000,0.000
189975.200,192143.600,196464.100,245003.500,70061.370,199670.500,190074.100,687100.700,0.000
189969.800,192136.600,196454.900,244609.000,70046.700,199670.500,190047.000,686887.100,0.000
189979.600,192153.800,196479.400,244839.300,70083.360,199680.500,190107.200,687136.200,0.000
189991.100,192161.200,196480.000,244765.700,70069.680,199694.300,190071.200,687074.000,0.000
190012.300,192178.800,196504.400,244837.400,70094.000,199703.300,190100.800,686989.100,0.000
190007.700,192174.000,196497.400,244972.200,70086.490,199694.100,190093.100,687113.100,0.000
190002.100,192164.400,196483.300,244576.600,70066.730,199688.800,190063.700,686914.600,0.000
190015.900,192182.700,196506.200,244809.300,70101.870,199696.100,190122.300,687197.800,0.000
190023.000,192182.500,196501.400,244751.200,70088.460,199707.300,190083.500,687145.500,0.000
190025.000,192190.400,196507.100,244806.500,70102.410,199717.600,190113.500,687080.300,0.000
190038.800,192206.500,196525.400,244978.300,70124.220,199732.500,190130.900,687281.300,0.000
190008.500,192174.000,196493.900,244588.400,70089.090,199712.500,190084.900,687067.900,0.000
189989.800,192164.100,196489.600,244793.100,70096.330,199694.100,190120.500,687305.100,0.000
189953.500,192125.900,196444.800,244683.100,70042.500,199662.900,190041.600,687221.700,0.000
189975.400,192149.400,196471.500,244762.200,70072.550,199679.500,190077.700,687202.800,0.000
189968.200,192147.100,196468.500,244917.500,70069.680,199675.300,190080.600,687350.900,0.000
189966.100,192142.200,196458.300,244545.200,70052.700,199674.400,190053.900,687217.100,0.000
189991.100,192176.600,196494.500,244817.400,70105.530,199700.700,190135.500,687537.100,0.000
189997.100,192170.100,196488.800,244758.200,70089.890,199706.100,190091.000,687505.700,0.000
189966.400,192136.100,196460.100,244778.300,70065.840,199672.100,190080.900,687443.300,0.000
189955.800,192126.400,196453.200,244923.400,70060.380,199666.700,190082.100,687623.400,0.000
189958.000,192133.500,196453.500,244566.500,70056.900,199675.500,190065.800,687480.300,0.000
189962.700,192147.100,196472.600,244813.800,70088.550,199679.400,190123.100,687869.000,0.000
189971.000,192152.000,196473.200,244745.800,70074.420,199686.100,190075.500,687833.100,0.000
189956.200,192152.800,196467.100,244782.300,70073.620,199682.400,190084.400,687757.700,0.000
189940.800,192133.500,196453.100,244925.000,70062.170,199662.900,190077.400,688022.300,0.000
189991.900,192180.600,196495.400,244589.700,70097.040,199709.100,190096.600,687770.200,0.000
190002.900,192197.900,196521.800,244855.100,70141.210,199721.200,190161.200,688192.400,0.000
189966.400,192153.500,196472.200,244737.000,70081.660,199697.300,190075.600,688133.400,0.000
189985.800,192169.000,196488.900,244762.500,70102.590,199712.800,190103.500,688010.500,0.000
189985.200,192180.800,196490.300,244898.200,70104.460,199712.500,190103.700,688261.100,0.000
189972.600,192159.500,196472.600,244494.000,70080.590,199697.500,190072.400,687939.900,0.000
189957.700,192148.300,196475.100,244714.000,70095.430,199681.100,190112.800,688329.100,0.000
189968.300,192140.000,196471.400,244644.500,70071.020,199676.600,190055.800,688284.300,0.000
189962.700,192151.000,196477.500,244695.600,70084.880,199683.300,190078.000,688133.800,0.000
189943.600,192143.100,196461.200,244847.500,70072.550,199676.500,190076.500,688405.300,0.000
189961.700,192159.300,196473.500,244509.400,70080.770,199697.100,190076.700,688136.600,0.000
189984.300,192186.200,196505.100,244790.800,70124.760,199715.400,190148.200,688592.400,0.000
189980.100,192169.800,196482.300,244735.900,70090.160,199706.900,190088.500,688603.100,0.000
189998.500,192183.500,196501.300,244807.600,70110.900,199714.100,190113.500,688522.800,0.000
190029.000,192211.700,196533.700,245028.000,70144.960,199740.300,190149.000,688882.300,0.000
190009.800,192185.600,196504.800,244666.100,70107.770,199718.100,190104.100,688663.000,0.000
189986.800,192177.500,196496.300,244889.600,70109.650,199697.000,190135.800,689174.300,0.000
189988.000,192169.500,196486.400,244823.500,70090.240,199703.400,190090.200,689253.400,0.000
190011.700,192188.600,196515.700,244894.800,70124.310,199722.600,190130.000,689221.400,0.000
189978.800,192167.300,196484.600,245043.300,70096.680,199699.700,190111.500,689575.400,0.000
189946.900,192131.800,196446.200,244646.700,70055.650,199674.200,190069.800,689381.400,0.000
189979.600,192174.600,196494.900,244924.700,70118.860,199705.200,190154.900,689927.900,0.000
189976.500,192163.700,196475.200,244838.600,70087.920,199703.500,190096.300,689979.100,0.000
190015.000,192195.400,196513.200,244902.600,70128.420,199731.400,190139.500,689923.600,0.000
190005.200,192179.700,196497.200,245053.300,70110.630,199706.900,190121.700,690276.200,0.000
190001.200,192167.600,196480.500,244662.100,70082.380,199693.400,190078.200,690054.100,0.000
190028.800,192197.600,196520.000,244935.400,70133.520,199714.500,190152.900,690558.000,0.000
190037.500,192195.900,196514.900,244881.200,70112.870,199720.200,190103.000,690591.000,0.000
190034.700,192188.800,196512.300,244910.900,70111.520,199707.100,190107.800,690474.600,0.000
190031.000,192195.300,196513.400,245094.700,70115.910,199707.200,190116.600,690801.200,0.000
190041.800,192201.100,196519.000,244769.100,70118.500,199720.300,190107.800,690563.800,0.000
190041.100,192203.600,196523.400,245007.200,70137.010,199713.700,190153.600,690987.300,0.000
190038.900,192195.800,196510.900,244960.600,70114.120,199720.500,190104.500,690967.000,0.000
190039.500,192196.700,196516.800,245016.900,70126.370,199723.200,190123.000,690792.500,0.000
190007.500,192171.800,196486.400,245180.700,70098.020,199697.000,190101.500,691034.400,0.000
190018.400,192175.900,196492.000,244856.000,70095.430,199698.800,190086.800,690748.300,0.000
190054.900,192216.300,196545.200,245169.800,70159.090,199729.800,190173.000,691167.100,0.000
190041.400,192199.400,196519.900,245117.300,70120.910,199723.700,190107.300,691092.300,0.000
190048.800,192204.800,196525.800,245146.100,70125.830,199722.500,190115.700,690839.100,0.000
190027.100,192192.900,196514.100,245331.500,70119.930,199710.500,190113.100,691015.600,0.000
190031.300,192194.400,196513.200,244984.900,70111.880,199720.500,190097.000,690628.800,0.000
190029.700,192201.300,196523.700,245221.400,70139.240,199721.300,190154.800,690923.900,0.000
190027.400,192194.900,196509.900,245161.100,70115.910,199725.500,190105.500,690778.400,0.000
190019.700,192192.900,196507.800,245188.900,70119.210,199722.100,190115.400,690460.100,0.000
189991.300,192171.900,196486.500,245340.200,70103.660,199703.000,190104.300,690543.300,0.000
189972.800,192158.100,196465.800,244963.900,70080.410,199693.600,190071.100,690083.400,0.000
190008.400,192193.000,196508.400,245219.100,70132.360,199713.000,190147.200,690343.900,0.000
189998.000,192172.600,196488.000,245150.900,70098.560,199700.300,190081.000,690130.400,0.000
189994.000,192171.400,196485.600,245161.200,70098.200,199696.000,190088.700,689768.900,0.000
189987.300,192173.500,196487.400,245343.800,70104.380,199699.300,190102.800,689866.900,0.000
189992.000,192181.000,196488.600,244994.700,70099.450,199709.800,190088.700,689423.400,0.000
190008.700,192210.300,196518.800,245242.800,70142.370,199728.600,190160.300,689672.700,0.000
189988.700,192182.400,196488.500,245186.200,70104.730,199713.800,190097.800,689508.400,0.000
189988.500,192176.700,196491.300,245229.400,70111.260,199706.000,190108.400,689201.300,0.000
189986.500,192184.700,196494.000,245424.900,70117.960,199712.200,190122.600,689360.600,0.000
189969.400,192165.600,196470.800,245061.500,70090.780,199702.200,190087.800,688977.800,0.000
189978.500,192177.500,196492.500,245310.800,70126.910,199704.300,190145.500,689299.300,0.000
189959.100,192151.200,196460.500,245243.200,70082.200,199689.700,190080.700,689197.600,0.000
189958.900,192147.500,196462.400,245285.200,70085.060,199685.700,190093.500,688975.700,0.000
189961.900,192160.000,196470.300,245476.300,70096.860,199696.100,190112.000,689208.800,0.000
189956.800,192160.500,196461.300,245119.000,70081.930,199697.500,190088.500,688874.400,0.000
189954.500,192153.800,196471.300,245364.900,70105.180,199683.000,190132.900,689232.700,0.000
189948.600,192144.400,196451.500,245310.000,70073.700,199680.100,190072.700,689173.100,0.000
189961.600,192155.800,196463.400,245335.100,70086.850,199686.100,190091.300,688952.900,0.000
189962.100,192154.100,196465.700,245516.800,70092.660,199686.300,190102.700,689176.800,0.000
189949.700,192140.500,196447.500,245140.900,70069.050,199677.400,190066.600,688822.100,0.000
189950.800,192147.900,196464.500,245378.200,70099.630,199676.500,190122.400,689153.100,0.000
189939.600,192134.100,196443.800,245308.100,70067.450,199674.600,190063.100,689043.000,0.000
189950.100,192149.700,196456.500,245327.600,70080.590,199681.900,190077.900,688772.500,0.000
189941.200,192145.500,196453.900,245497.100,70082.650,199676.500,190086.500,688936.900,0.000
189948.500,192147.100,196453.300,245119.500,70074.330,199679.900,190067.200,688535.100,0.000
189967.800,192169.700,196485.000,245347.600,70116.620,199689.800,190134.000,688814.400,0.000
189976.300,192171.500,196479.300,245293.500,70099.190,199699.300,190086.700,688686.400,0.000
189988.200,192180.800,196493.700,245321.400,70117.250,199707.200,190109.700,688378.900,0.000
189957.100,192153.200,196465.200,245469.000,70090.960,199679.000,190093.500,688505.600,0.000
189949.700,192138.300,196447.500,245072.200,70066.200,199666.800,190058.600,688083.600,0.000
189963.400,192157.000,196474.900,245307.100,70107.860,199676.300,190125.000,688368.600,0.000
189961.700,192153.800,196463.900,245250.900,70086.400,199683.200,190077.100,688243.700,0.000
189962.800,192156.400,196467.300,245258.600,70092.750,199683.800,190086.200,687935.300,0.000
189951.200,192152.100,196463.700,245426.300,70094.450,199680.900,190092.700,688093.600,0.000
189946.600,192148.000,196451.600,245038.900,70075.130,199678.300,190061.700,687743.200,0.000
189956.300,192161.700,196473.500,245264.500,70109.830,199684.500,190123.000,688036.000,0.000
189943.800,192141.800,196449.100,245193.200,70074.510,199674.800,190064.000,687931.600,0.000
189964.300,192158.700,196469.300,245213.700,70096.680,199689.200,190094.400,687704.800,0.000
189961.800,192155.700,196467.500,245387.800,70100.880,199689.900,190107.000,687856.800,0.000
189950.800,192145.100,196450.200,244987.700,70077.730,199680.800,190071.300,687583.900,0.000
189956.200,192157.300,196468.600,245197.500,70107.140,199681.500,190124.000,687860.100,0.000
189956.100,192147.900,196457.200,245146.200,70082.730,199682.500,190071.100,687798.200,0.000
189957.100,192154.500,196464.300,245144.400,70092.300,199689.400,190087.600,687596.600,0.000
189934.800,192139.500,196448.500,245292.400,70080.590,199675.100,190082.300,687696.400,0.000
189925.900,192131.400,196435.700,244902.200,70062.620,199667.500,190046.300,687463.300,0.000
189947.900,192158.000,196472.800,245136.800,70114.210,199687.500,190122.900,687757.100,0.000
189940.100,192143.100,196455.100,245080.000,70083.720,199684.600,190070.800,687706.500,0.000
189936.300,192137.000,196452.000,245074.900,70081.930,199678.300,190076.200,687539.900,0.000
189939.800,192139.500,196457.900,245258.900,70092.210,199678.300,190091.800,687676.100,0.000
189930.700,192129.100,196439.000,244876.800,70069.680,199670.500,190055.500,687485.300,0.000
189937.200,192144.000,196457.100,245081.800,70099.270,199671.800,190108.800,687797.400,0.000
189940.000,192144.800,196451.100,245033.800,70081.750,199680.500,190064.400,687760.200,0.000
189957.400,192162.400,196469.900,245062.100,70103.840,199697.400,190090.200,687612.300,0.000
189943.300,192151.600,196461.700,245238.700,70103.840,199687.500,190095.500,687778.100,0.000
189925.600,192133.400,196436.400,244832.600,70069.860,199674.100,190052.600,687548.400,0.000
189966.400,192173.500,196494.100,245096.500,70139.690,199704.600,190144.200,687898.900,0.000
189930.600,192136.400,196446.500,245015.800,70079.700,199673.100,190058.200,687843.800,0.000
189943.500,192140.600,196457.700,245013.700,70087.120,199678.700,190071.100,687673.400,0.000
189939.700,192140.900,196462.500,245203.800,70098.120,199678.500,190087.200,687873.300,0.000
189908.900,192119.500,196429.200,244795.100,70062.710,199660.800,190043.900,687622.700,0.000
189927.100,192143.400,196460.300,245017.600,70102.490,199672.500,190107.200,687982.400,0.000
189931.600,192141.600,196453.300,244970.900,70081.750,199677.600,190057.200,687952.800,0.000
189977.500,192184.000,196502.600,245033.200,70136.290,199719.800,190112.100,687781.800,0.000
189952.400,192162.100,196475.300,245184.300,70110.630,199696.800,190101.000,688003.000,0.000
189930.900,192131.800,196440.600,244770.800,70067.180,199673.000,190049.600,687723.100,0.000
189940.500,192143.700,196465.000,245005.900,70105.360,199680.300,190114.500,688097.600,0.000
189949.800,192144.600,196460.800,244969.100,70088.280,199686.400,190070.600,688083.600,0.000
189953.100,192158.200,196471.700,244986.000,70104.460,199697.100,190091.200,687874.000,0.000
189922.200,192139.500,196447.800,245134.700,70089.350,199681.700,190087.100,688134.300,0.000
189964.900,192174.200,196491.200,244809.500,70122.610,199718.600,190098.300,687862.600,0.000
189965.100,192187.100,196504.800,245035.200,70148.800,199720.300,190151.600,688226.000,0.000
189992.200,192198.600,196506.600,244975.400,70137.900,199739.100,190119.500,688242.700,0.000
189983.600,192199.000,196520.700,245031.100,70161.050,199740.400,190137.600,688033.300,0.000
189949.600,192170.100,196485.100,245169.500,70135.580,199716.000,190127.400,688278.600,0.000
189941.900,192146.600,196459.000,244773.000,70088.280,199690.400,190064.400,687960.300,0.000
189923.300,192139.800,196452.900,244961.200,70097.940,199675.700,190105.100,688326.600,0.000
189929.300,192134.500,196447.100,244910.400,70086.220,199683.000,190066.700,688311.000,0.000
189943.300,192144.900,196459.300,244912.600,70102.310,199692.200,190083.100,688082.300,0.000
189947.600,192158.400,196466.000,245096.500,70110.360,199697.500,190099.100,688358.900,0.000
189931.600,192153.600,196456.300,244724.200,70092.840,199689.900,190066.800,688068.400,0.000
189972.700,192196.500,196518.300,245007.700,70169.200,199725.300,190160.300,688470.400,0.000
189934.600,192154.500,196461.700,244931.300,70100.980,199698.400,190080.000,688465.900,0.000
189926.700,192136.600,196444.700,244884.900,70079.250,199675.700,190062.700,688243.900,0.000
189942.900,192156.400,196471.800,245117.300,70112.150,199693.700,190095.600,688536.100,0.000
189915.500,192128.100,196428.700,244707.300,70066.280,199674.000,190045.600,688248.100,0.000
189928.800,192138.200,196450.900,244933.200,70102.670,199676.500,190107.500,688630.300,0.000
189954.900,192154.300,196468.500,244931.500,70107.140,199700.500,190076.900,688646.600,0.000
190016.000,192200.300,196540.200,245039.500,70176.700,199742.900,190132.400,688454.100,0.000
189904.800,192125.100,196428.200,245099.800,70078.000,199666.200,190065.300,688685.000,0.000
189957.700,192171.100,196475.300,244751.700,70117.160,199711.900,190084.500,688417.300,0.000
189957.700,192189.900,196509.300,245023.100,70175.630,199729.900,190165.200,688786.800,0.000
189894.900,192108.300,196423.800,244907.000,70068.520,199659.100,190040.700,688725.600,0.000
189889.800,192104.800,196410.200,244874.400,70049.740,199647.800,190027.300,688472.100,0.000
189890.200,192115.500,196415.600,245050.500,70063.700,199657.500,190051.000,688719.700,0.000
189940.000,192153.100,196459.800,244728.000,70098.830,199694.700,190066.500,688414.900,0.000
189932.200,192144.900,196457.900,244913.000,70107.050,199678.300,190105.300,688725.800,0.000
189898.700,192105.800,196410.800,244821.900,70047.240,199647.400,190020.500,688651.400,0.000
189912.000,192115.900,196423.600,244815.800,70061.550,199655.100,190037.500,688371.400,0.000
189943.500,192151.800,196470.500,245088.100,70118.140,199690.000,190094.800,688625.600,0.000
189909.900,192126.100,196422.600,244666.000,70062.890,199670.300,190039.300,688278.300,0.000
189915.700,192142.200,196448.900,244870.400,70106.250,199681.400,190106.400,688603.600,0.000
189909.900,192134.600,196437.700,244839.500,70084.620,199679.100,190051.800,688542.600,0.000
189920.800,192142.400,196447.300,244846.700,70094.720,199683.000,190061.300,688250.300,0.000
189896.000,192123.900,196428.100,245032.200,70081.570,199664.200,190060.300,688442.200,0.000
189876.700,192102.100,196393.400,244605.500,70043.220,199651.400,190018.500,688069.800,0.000
189943.900,192163.200,196471.200,244866.900,70127.350,199697.100,190119.300,688399.200,0.000
189930.300,192147.000,196447.800,244823.900,70089.530,199691.200,190060.600,688341.100,0.000
189965.300,192175.900,196487.000,244850.800,70131.100,199719.200,190102.800,688058.500,0.000
189951.200,192166.000,196473.100,245025.900,70119.210,199704.800,190100.500,688215.100,0.000
189926.300,192136.400,196440.600,244630.600,70080.590,199681.900,190051.000,687818.000,0.000
189919.200,192131.100,196441.400,244811.700,70096.150,199669.100,190097.400,688084.900,0.000
189918.500,192135.000,196434.400,244780.400,70081.220,199681.500,190058.100,688031.900,0.000
189920.600,192150.200,196442.900,244780.900,70092.300,199695.200,190072.200,687753.400,0.000
189921.600,192153.500,196453.300,244999.800,70110.270,199700.200,190092.800,687932.400,0.000
189915.300,192145.200,196440.500,244625.000,70090.600,199692.500,190054.600,687647.300,0.000
189923.800,192155.100,196454.200,244802.800,70114.740,199693.700,190103.700,687924.900,0.000
189907.900,192127.900,196427.000,244751.900,70075.670,199678.800,190043.400,687880.000,0.000
189922.100,192140.100,196445.400,244763.800,70094.270,199685.500,190064.200,687654.700,0.000
189929.200,192146.100,196450.500,244960.300,70099.900,199688.900,190077.400,687823.200,0.000
189925.900,192141.800,196440.800,244590.400,70082.730,199686.400,190047.900,687590.600,0.000
189933.600,192154.300,196461.600,244795.700,70117.700,199689.000,190108.100,687881.900,0.000
189910.100,192131.100,196425.300,244735.000,70071.910,199676.300,190043.300,687838.800,0.000
189908.700,192131.400,196434.000,244750.800,70085.150,199677.600,190054.400,687626.400,0.000
189897.100,192123.000,196417.500,244923.000,70071.290,199665.900,190056.700,687820.800,0.000
189902.400,192119.600,196417.500,244560.200,70065.030,199670.700,190030.400,687614.400,0.000
189914.700,192136.600,196438.200,244749.500,70096.230,199674.000,190088.000,687939.900,0.000
189908.600,192122.700,196418.700,244711.700,70062.800,199663.400,190029.700,687926.600,0.000
189935.800,192143.600,196451.200,244754.300,70098.830,199682.500,190062.100,687752.800,0.000
189923.700,192140.600,196444.800,244960.700,70101.870,199680.800,190077.400,687992.300,0.000
189905.400,192117.900,196412.800,244549.200,70060.560,199666.600,190029.600,687745.100,0.000
189922.000,192144.900,196447.600,244762.700,70112.420,199687.200,190104.400,688137.400,0.000
189895.400,192117.800,196411.000,244716.600,70064.500,199669.600,190031.800,688153.600,0.000
189907.400,192119.400,196415.900,244720.100,70070.840,199666.800,190039.400,687955.200,0.000
189918.400,192136.400,196435.600,244946.900,70100.260,199683.400,190073.100,688266.900,0.000
189909.200,192121.800,196413.800,244560.500,70072.370,199671.600,190031.600,687996.800,0.000
189902.600,192123.100,196419.300,244732.300,70088.010,199662.400,190075.300,688380.200,0.000
189904.500,192119.300,196413.000,244717.900,70071.020,199668.200,190031.200,688429.200,0.000
189928.400,192141.100,196436.600,244738.900,70095.160,199688.400,190054.300,688225.700,0.000
189921.300,192139.000,196434.400,244948.900,70099.810,199688.200,190070.100,688535.800,0.000
189877.700,192102.300,196387.200,244526.700,70050.280,199658.900,190014.300,688231.200,0.000
189906.800,192134.400,196430.800,244747.200,70106.790,199680.900,190093.800,688625.000,0.000
189907.000,192130.100,196423.800,244748.800,70092.930,199686.400,190053.000,688678.600,0.000
189899.800,192121.300,196414.400,244740.800,70083.980,199673.800,190047.100,688452.800,0.000
189890.400,192116.400,196403.500,244921.600,70076.390,199665.100,190051.600,688748.800,0.000
189906.700,192121.000,196411.000,244564.000,70076.570,199675.700,190035.000,688481.000,0.000
189919.700,192139.500,196434.700,244758.200,70115.550,199684.300,190099.300,688849.400,0.000
189907.800,192123.400,196411.400,244722.100,70084.160,199676.100,190043.700,688894.600,0.000
189900.200,192121.200,196409.300,244715.900,70082.910,199673.200,190044.800,688681.300,0.000
189894.400,192125.400,196415.900,244920.500,70098.200,199680.500,190072.500,688984.700,0.000
189888.000,192117.500,196403.500,244538.100,70079.790,199678.600,190041.900,688713.900,0.000
189897.700,192135.700,196429.200,244733.000,70118.410,199685.200,190102.800,689091.100,0.000
189887.100,192121.100,196407.800,244707.900,70083.540,199676.300,190039.500,689141.100,0.000
189905.700,192136.400,196429.600,244729.500,70106.430,199693.400,190064.600,688951.300,0.000
189905.300,192138.600,196431.500,244934.300,70110.190,199690.600,190076.800,689271.400,0.000
189911.500,192142.400,196430.200,244574.200,70099.630,199695.500,190049.900,689020.800,0.000
189915.600,192149.500,196441.800,244748.900,70129.590,199698.200,190111.700,689411.800,0.000
189894.600,192120.000,196404.200,244703.300,70077.910,199676.500,190040.800,689470.600,0.000
189899.800,192121.900,196406.800,244694.100,70080.140,199676.900,190046.600,689289.900,0.000
189907.600,192135.600,196423.500,244924.100,70102.950,199689.600,190076.400,689634.600,0.000
189906.200,192135.700,196415.900,244547.400,70088.010,199688.400,190044.000,689383.600,0.000
189908.600,192141.700,196431.800,244726.700,70112.150,199680.300,190093.000,689779.900,0.000
189904.900,192134.400,196420.300,244716.400,70089.270,199677.800,190043.600,689871.600,0.000
189906.100,192131.200,196418.500,244705.300,70085.950,199675.300,190043.400,689683.800,0.000
189902.900,192119.600,196415.300,244915.800,70086.850,199666.500,190054.100,690021.400,0.000
189922.300,192138.900,196427.200,244557.000,70091.500,199686.700,190042.700,689791.900,0.000
189951.200,192171.200,196469.400,244776.200,70148.090,199712.900,190122.900,690193.100,0.000
189918.300,192130.300,196418.500,244725.200,70083.360,199678.600,190039.500,690261.500,0.000
189928.000,192137.600,196428.300,244723.500,70092.210,199682.100,190045.700,690064.800,0.000
189941.400,192157.100,196451.100,244957.200,70119.300,199697.000,190076.600,690371.800,0.000
189932.400,192153.300,196439.100,244572.300,70102.050,199699.700,190048.100,690072.900,0.000
189936.900,192161.400,196455.400,244761.000,70132.890,199698.300,190108.400,690414.800,0.000
189925.300,192139.200,196432.400,244745.200,70100.800,199685.400,190053.000,690445.300,0.000
189929.200,192139.500,196436.300,244736.300,70105.270,199687.700,190060.400,690198.600,0.000
189921.100,192135.400,196432.000,244937.000,70104.730,199681.200,190069.200,690467.400,0.000
189915.500,192126.600,196418.300,244537.200,70079.880,199676.400,190030.400,690135.000,0.000
189936.700,192150.500,196455.100,244735.300,70127.980,199690.800,190102.500,690445.400,0.000
189938.500,192147.500,196445.500,244728.500,70108.300,199692.900,190058.000,690454.000,0.000
189925.100,192135.500,196432.800,244701.700,70097.220,199679.200,190050.300,690166.600,0.000
189934.800,192153.900,196449.300,244924.900,70121.540,199695.200,190085.100,690416.800,0.000
189945.200,192157.200,196454.200,244561.100,70120.110,199704.000,190065.100,690070.600,0.000
189943.300,192158.800,196461.700,244725.200,70140.850,199697.100,190112.100,690333.800,0.000
189930.400,192138.100,196437.800,244700.400,70105.800,199684.400,190052.800,690314.100,0.000
189959.000,192161.000,196465.400,244714.600,70130.300,199703.500,190078.100,690030.400,0.000
189964.400,192171.000,196474.600,244932.300,70145.680,199713.200,190104.300,690269.200,0.000
189953.300,192166.000,196458.400,244543.500,70125.020,199711.300,190068.300,689908.200,0.000
189942.800,192163.400,196458.900,244702.800,70138.170,199701.500,190112.000,690168.500,0.000
189922.000,192137.500,196430.300,244683.100,70102.230,199683.700,190048.500,690144.100,0.000
189941.700,192156.000,196448.000,244687.100,70120.730,199701.000,190071.400,689869.400,0.000
189954.500,192179.500,196471.500,244930.300,70153.730,199723.000,190114.700,690113.900,0.000
189909.000,192133.000,196420.700,244503.000,70096.950,199689.900,190049.700,689723.000,0.000
189919.500,192137.800,196436.800,244678.800,70120.640,199683.500,190097.000,689986.900,0.000
189929.300,192135.400,196427.900,244671.100,70100.620,199679.800,190049.800,689978.400,0.000
189946.800,192143.900,196441.600,244667.900,70112.150,199687.400,190059.600,689690.800,0.000
189951.000,192146.000,196445.600,244884.700,70121.090,199689.500,190077.800,689926.900,0.000
189949.300,192141.600,196432.300,244502.400,70099.900,199688.400,190042.300,689563.100,0.000
189965.100,192163.000,196457.400,244686.600,70140.760,199704.300,190110.500,689840.100,0.000
189952.600,192144.400,196430.700,244657.600,70101.240,199690.900,190047.700,689822.800,0.000
189975.800,192164.500,196454.700,244662.100,70126.270,199706.600,190069.900,689534.800,0.000
189982.300,192172.700,196465.900,244888.500,70143.270,199713.800,190094.600,689769.700,0.000
189977.000,192160.000,196446.000,244497.500,70117.780,199703.800,190053.900,689399.900,0.000
190007.600,192192.100,196485.200,244702.900,70169.100,199723.000,190129.400,689681.700,0.000
190006.100,192183.500,196472.100,244706.200,70146.300,199725.200,190087.400,689678.100,0.000
190022.600,192193.500,196477.500,244691.400,70148.800,199729.000,190090.300,689387.100,0.000
190024.200,192191.400,196476.800,244910.800,70152.740,199721.600,190099.000,689627.500,0.000
190016.400,192177.100,196457.900,244521.900,70127.260,199711.300,190056.500,689264.700,0.000
190043.400,192204.600,196492.200,244713.200,70171.430,199726.500,190126.700,689539.400,0.000
190036.300,192182.600,196470.100,244704.700,70136.650,199716.300,190068.000,689533.300,0.000
190020.500,192167.000,196455.100,244673.300,70125.200,199699.800,190058.000,689234.800,0.000
190014.800,192166.500,196458.100,244907.400,70132.540,199697.100,190074.700,689488.800,0.000
190016.700,192168.600,196450.900,244528.000,70118.410,199706.100,190051.000,689155.600,0.000
190039.000,192200.900,196489.800,244723.200,70170.450,199725.500,190129.100,689450.700,0.000
190025.800,192191.200,196472.600,244726.000,70142.280,199723.900,190080.500,689470.400,0.000
190020.500,192184.000,196468.200,244700.300,70137.090,199715.400,190078.000,689181.000,0.000
190027.000,192195.900,196481.700,244936.600,70157.210,199724.300,190103.900,689451.800,0.000
190022.700,192190.400,196473.500,244561.500,70142.280,199720.300,190069.800,689109.600,0.000
190031.000,192203.900,196495.800,244741.600,70174.470,199719.000,190124.200,689391.500,0.000
190028.500,192201.800,196489.800,244743.800,70157.210,199724.500,190081.800,689414.900,0.000
190031.800,192202.400,196497.500,244741.600,70165.700,199729.600,190092.000,689151.200,0.000
190015.600,192191.000,196483.800,244948.700,70158.820,199717.900,190098.300,689399.300,0.000
190009.300,192187.000,196472.700,244569.800,70142.730,199723.000,190072.600,689061.500,0.000
190041.200,192222.400,196515.800,244768.100,70197.450,199748.200,190154.900,689354.500,0.000
189989.500,192167.300,196453.200,244722.600,70129.670,199706.400,190067.100,689337.600,0.000
189984.400,192163.400,196446.600,244677.300,70124.840,199705.500,190063.100,689038.900,0.000
189992.000,192173.400,196463.200,244911.500,70145.680,199715.700,190092.600,689290.800,0.000
189976.500,192158.000,196441.800,244518.900,70117.960,199703.500,190047.000,688926.600,0.000
189987.400,192174.100,196465.000,244695.700,70151.490,199706.900,190104.300,689199.200,0.000
189993.600,192175.800,196461.300,244700.500,70135.840,199710.100,190062.700,689211.100,0.000
189988.900,192166.700,196456.700,244676.400,70130.480,199703.400,190058.200,688899.500,0.000
189991.500,192177.500,196465.500,244910.700,70145.680,199709.500,190085.100,689151.500,0.000
189993.800,192175.100,196461.400,244542.800,70132.710,199709.500,190058.100,688803.800,0.000
190000.500,192183.600,196481.400,244712.200,70164.270,199712.900,190118.000,689068.200,0.000
189984.200,192171.400,196457.200,244697.800,70130.660,199705.900,190063.200,689058.900,0.000
189959.600,192155.500,196436.600,244645.100,70117.340,199695.300,190053.800,688738.300,0.000
189963.500,192166.400,196446.800,244873.500,70135.130,199706.700,190085.500,688997.600,0.000
189975.800,192177.200,196454.000,244505.600,70134.320,199718.100,190064.700,688651.600,0.000
189972.800,192175.200,196464.500,244664.300,70153.730,199708.400,190105.500,688911.100,0.000
189974.000,192176.400,196459.600,244668.600,70140.940,199718.500,190069.500,688935.300,0.000
189977.900,192176.500,196462.300,244629.000,70142.280,199713.600,190068.400,688626.400,0.000
189972.800,192171.000,196462.700,244852.500,70145.590,199701.700,190077.100,688873.900,0.000
189966.100,192159.200,196446.300,244463.200,70122.250,199696.000,190039.800,688536.700,0.000
189983.100,192182.200,196473.700,244627.700,70159.270,199705.800,190103.100,688818.700,0.000
189995.900,192189.300,196479.700,244649.600,70155.160,199720.500,190073.300,688862.600,0.000
189993.600,192187.500,196478.600,244617.300,70153.910,199721.200,190073.600,688576.600,0.000
189974.500,192173.100,196465.900,244822.000,70146.570,199708.300,190080.500,688827.400,0.000
189964.200,192163.100,196452.200,244444.400,70126.630,199706.000,190044.900,688495.300,0.000
189981.400,192188.600,196482.200,244621.700,70168.920,199719.100,190112.400,688787.400,0.000
189968.800,192174.900,196457.500,244608.900,70136.560,199713.600,190059.000,688829.400,0.000
189973.800,192179.200,196462.300,244583.300,70143.630,199717.900,190063.900,688554.300,0.000
189978.300,192193.800,196476.400,244824.800,70164.270,199730.500,190095.600,688842.700,0.000
189970.100,192184.900,196463.000,244444.800,70143.270,199726.400,190061.700,688515.700,0.000
189983.300,192197.600,196488.800,244622.400,70179.920,199728.800,190126.100,688807.300,0.000
189969.000,192180.000,196466.600,244631.600,70148.540,199716.300,190072.800,688845.400,0.000
189962.300,192171.000,196456.900,244586.700,70143.710,199713.600,190075.700,688558.800,0.000
189970.100,192177.500,196468.700,244832.700,70161.230,199715.100,190098.100,688828.600,0.000
189936.900,192149.700,196424.800,244405.300,70108.750,199689.000,190033.400,688480.200,0.000
189953.600,192171.000,196457.700,244592.300,70153.730,199701.300,190099.400,688764.900,0.000
189946.400,192156.100,196439.300,244603.800,70126.990,199698.600,190050.500,688803.100,0.000
189957.100,192167.000,196448.200,244582.300,70138.440,199708.500,190060.400,688516.100,0.000
189966.200,192183.800,196463.900,244829.800,70164.370,199724.100,190097.500,688789.000,0.000
189962.700,192174.900,196454.700,244455.700,70147.470,199724.600,190069.200,688459.500,0.000
189972.600,192184.200,196474.600,244627.100,70179.120,199724.700,190133.900,688731.600,0.000
189934.800,192140.200,196418.900,244579.900,70109.290,199681.100,190046.300,688740.100,0.000
189959.400,192163.000,196449.000,244582.100,70138.800,199699.900,190068.600,688461.700,0.000
189959.600,192174.600,196456.700,244824.800,70157.750,199712.800,190099.500,688732.000,0.000
189934.700,192147.800,196421.400,244415.100,70115.550,199691.800,190041.200,688371.100,0.000
189954.300,192172.300,196457.000,244605.800,70166.160,199710.600,190115.100,688655.100,0.000
189945.500,192162.600,196440.800,244617.000,70146.040,199718.300,190078.000,688697.700,0.000
189953.300,192167.700,196447.500,244584.300,70152.300,199724.500,190081.300,688402.600,0.000
189946.600,192166.000,196452.300,244831.100,70162.400,199717.900,190096.900,688648.900,0.000
189930.400,192140.400,196416.700,244413.500,70113.130,199699.000,190033.600,688287.100,0.000
189949.900,192168.300,196449.200,244590.800,70158.460,199712.200,190100.300,688553.700,0.000
189932.600,192137.800,196420.000,244585.600,70117.070,199691.800,190042.200,688580.300,0.000
189947.200,192144.200,196433.500,244555.700,70125.920,199697.600,190051.300,688267.600,0.000
189955.600,192156.900,196449.000,244808.800,70147.020,199703.100,190079.200,688520.100,0.000
189954.900,192157.600,196439.000,244429.400,70129.850,199706.600,190047.900,688182.000,0.000
189969.400,192180.000,196466.100,244587.500,70165.440,199712.000,190108.800,688442.100,0.000
189957.500,192161.200,196446.500,244591.400,70136.470,199702.700,190058.500,688485.300,0.000
189954.900,192153.400,196443.000,244548.800,70129.140,199691.700,190047.000,688180.300,0.000
189938.800,192139.500,196432.900,244778.300,70125.380,199678.800,190054.000,688450.800,0.000
189923.900,192131.200,196412.200,244388.800,70101.870,199681.800,190022.100,688141.900,0.000
189920.500,192134.800,196422.000,244548.500,70125.830,199681.900,190079.800,688431.200,0.000
189913.000,192119.000,196402.300,244558.500,70097.310,199672.400,190026.400,688500.600,0.000
189924.000,192127.500,196412.100,244520.000,70106.880,199681.600,190037.400,688220.700,0.000
189929.000,192140.000,196423.700,244762.600,70126.630,199689.400,190064.600,688521.100,0.000
189916.300,192122.700,196404.000,244375.500,70098.120,199682.900,190021.000,688208.200,0.000
189938.800,192151.800,196442.400,244557.800,70150.230,199702.800,190098.100,688513.900,0.000
189926.800,192135.900,196423.600,244567.900,70123.510,199694.000,190047.400,688578.500,0.000
189916.000,192127.200,196411.900,244506.300,70111.080,199685.900,190037.000,688281.800,0.000
189919.400,192136.400,196423.400,244754.900,70130.300,199695.000,190063.000,688576.400,0.000
189921.300,192137.200,196415.200,244390.300,70113.940,199699.900,190032.200,688287.700,0.000
189928.100,192154.300,196436.200,244554.500,70148.980,199703.300,190095.000,688588.500,0.000
189901.200,192126.700,196401.300,244544.900,70107.230,199682.500,190032.600,688647.300,0.000
189902.700,192120.900,196399.400,244502.300,70100.980,199674.800,190021.300,688362.300,0.000
189910.800,192129.200,196409.300,244743.500,70115.550,199680.500,190049.400,688655.400,0.000
189914.600,192128.800,196402.900,244371.700,70101.690,199683.200,190021.400,688353.100,0.000
189913.100,192131.600,196411.700,244521.100,70120.290,199671.500,190067.700,688635.400,0.000
189914.600,192124.700,196403.500,244545.300,70103.750,199674.300,190029.900,688719.300,0.000
189924.800,192130.000,196413.000,244510.600,70113.410,199681.400,190036.700,688435.400,0.000
189926.100,192140.700,196423.400,244757.700,70134.050,199687.500,190069.400,688719.900,0.000
189910.800,192125.000,196401.600,244369.500,70105.450,199676.700,190024.500,688382.400,0.000
189915.400,192132.800,196418.000,244527.800,70134.500,199677.000,190080.500,688653.700,0.000
189903.400,192113.700,196396.100,244540.500,70102.490,199665.000,190022.300,688704.100,0.000
189906.100,192110.800,196394.500,244495.700,70099.550,199660.000,190012.800,688382.400,0.000
189911.500,192116.600,196403.500,244737.300,70111.160,199663.000,190039.500,688644.300,0.000
189922.700,192124.100,196406.000,244371.600,70104.200,199677.300,190019.800,688313.000,0.000
189933.300,192137.000,196427.900,244542.300,70138.620,199683.600,190082.600,688564.300,0.000
189916.600,192116.500,196400.200,244551.400,70102.670,199673.800,190030.300,688601.500,0.000
189915.700,192120.400,196402.200,244501.400,70105.270,199679.600,190033.900,688270.100,0.000
189917.400,192133.700,196412.000,244745.700,70122.160,199688.300,190062.800,688510.100,0.000
189907.400,192120.300,196394.500,244375.400,70100.530,199682.700,190024.200,688158.700,0.000
189938.500,192153.800,196439.300,244563.300,70160.520,199706.800,190107.500,688416.300,0.000
189901.300,192118.600,196390.200,244542.700,70101.690,199674.000,190031.000,688417.300,0.000
189909.600,192113.400,196393.900,244493.600,70104.730,199675.600,190037.100,688086.800,0.000
189909.700,192116.500,196402.000,244740.800,70116.350,199670.100,190054.000,688324.900,0.000
189917.400,192121.300,196400.000,244375.300,70103.390,199675.500,190022.800,687979.600,0.000
189929.100,192137.500,196424.800,244541.200,70142.100,199685.800,190088.700,688224.100,0.000
189921.100,192127.500,196411.600,244565.000,70120.910,199684.200,190043.200,688281.100,0.000
189916.300,192118.700,196404.900,244506.100,70112.060,199672.400,190027.600,687953.900,0.000
189920.200,192126.500,196412.000,244746.900,70123.690,199678.300,190055.800,688221.100,0.000
189928.100,192132.100,196414.500,244400.200,70121.270,199692.200,190038.700,687907.000,0.000
189918.000,192125.000,196410.400,244538.400,70130.130,199672.600,190077.500,688156.500,0.000
189908.000,192111.400,196391.200,244552.100,70101.600,199669.100,190031.000,688236.100,0.000
189925.800,192128.300,196406.500,244510.800,70116.270,199685.200,190044.600,687943.600,0.000
189925.500,192131.100,196409.500,244744.400,70126.630,199681.900,190068.400,688219.900,0.000
189946.100,192149.300,196426.500,244409.300,70140.410,199703.900,190060.600,687925.800,0.000
189917.300,192128.700,196408.200,244530.900,70133.160,199672.400,190082.600,688171.100,0.000
189921.500,192124.600,196405.100,244563.000,70120.380,199679.100,190049.200,688264.900,0.000
189923.600,192120.800,196404.300,244506.500,70115.730,199674.700,190039.400,687966.500,0.000
189931.800,192131.300,196414.300,244742.300,70128.240,199682.000,190063.700,688257.100,0.000
189945.000,192143.100,196424.100,244391.100,70131.640,199699.300,190044.500,687955.400,0.000
189935.800,192141.400,196426.800,244527.800,70147.200,199686.700,190086.000,688218.600,0.000
189935.300,192134.100,196415.300,244551.300,70122.080,199684.600,190037.300,688310.800,0.000
189940.600,192139.000,196419.500,244496.600,70124.490,199689.900,190038.000,688016.600,0.000
189942.800,192146.900,196431.200,244748.300,70140.490,199693.700,190063.900,688304.500,0.000
189926.700,192129.500,196408.500,244366.400,70112.060,199683.000,190021.000,687973.500,0.000
189932.100,192141.200,196423.700,244521.300,70141.120,199683.800,190077.400,688228.900,0.000
189930.900,192136.300,196411.100,244539.700,70120.910,199685.400,190035.000,688301.700,0.000
189926.700,192131.000,196408.900,244477.800,70118.860,199683.000,190028.700,687971.900,0.000
189922.900,192137.000,196413.200,244714.000,70131.100,199687.600,190054.100,688235.800,0.000
189924.000,192137.700,196409.300,244345.100,70120.200,199693.500,190026.600,687914.700,0.000
189929.300,192146.900,196427.700,244499.100,70151.490,199693.400,190087.800,688170.400,0.000
189925.100,192137.100,196415.300,244526.600,70132.360,199697.600,190054.100,688247.200,0.000
189928.100,192135.100,196418.800,244472.100,70134.590,199696.600,190053.600,687928.500,0.000
189913.600,192121.600,196406.300,244691.100,70125.470,199675.600,190054.800,688181.400,0.000
189928.900,192134.400,196413.600,244336.800,70124.760,199692.500,190034.400,687884.100,0.000
189920.200,192134.500,196420.300,244490.000,70146.750,199682.000,190081.800,688126.500,0.000
189908.600,192124.300,196399.300,244510.600,70119.750,199679.200,190035.300,688198.700,0.000
189925.300,192138.100,196414.400,244461.000,70132.800,199693.100,190041.000,687878.800,0.000
189914.800,192130.500,196410.800,244701.600,70133.700,199681.000,190050.200,688130.400,0.000
189902.000,192113.100,196389.000,244319.900,70103.210,199671.700,190008.100,687821.700,0.000
189921.100,192132.300,196417.700,244477.400,70140.760,199680.600,190076.500,688080.500,0.000
189927.300,192130.900,196415.200,244519.100,70124.840,199681.400,190035.800,688139.900,0.000
189947.300,192150.500,196435.100,244484.600,70146.390,199702.000,190054.400,687825.200,0.000
189924.200,192131.500,196413.700,244706.500,70132.270,199677.900,190053.900,688061.600,0.000
189901.900,192109.300,196380.500,244307.100,70090.600,199662.900,189999.500,687771.200,0.000
189918.000,192135.200,196413.400,244474.300,70137.990,199678.000,190069.200,688029.000,0.000
189924.200,192133.900,196411.100,244524.000,70127.880,199689.100,190043.800,688105.400,0.000
189921.100,192123.900,196401.900,244446.200,70114.840,199679.600,190029.900,687797.200,0.000
189936.500,192140.900,196421.700,244705.600,70139.330,199690.400,190066.400,688057.600,0.000
189927.100,192127.000,196404.400,244332.900,70113.760,199680.600,190022.300,687766.600,0.000
189923.800,192131.600,196415.800,244475.300,70138.340,199676.400,190075.800,688024.100,0.000
189901.500,192105.700,196383.900,244487.100,70096.050,199657.300,190014.700,688090.700,0.000
189908.000,192108.200,196390.400,244431.700,70102.850,199659.700,190012.900,687780.200,0.000
189910.000,192120.200,196400.600,244683.100,70122.430,199667.800,190044.300,688064.400,0.000
189907.900,192121.100,196391.300,244309.900,70106.340,199674.000,190015.400,687792.600,0.000
189927.600,192143.500,196422.000,244474.100,70151.130,199686.700,190085.900,688076.600,0.000
189911.200,192118.500,196391.300,244492.900,70112.870,199669.800,190025.000,688160.700,0.000
189908.800,192109.100,196384.100,244423.400,70105.980,199662.200,190013.000,687854.300,0.000
189915.700,192116.700,196397.100,244677.200,70125.120,199667.300,190043.500,688149.800,0.000
189912.700,192109.900,196389.300,244310.200,70107.680,199668.200,190008.300,687865.100,0.000
189932.300,192135.300,196424.900,244475.200,70151.760,199684.100,190078.900,688148.400,0.000
189914.600,192116.700,196398.500,244493.000,70115.550,199669.300,190023.500,688256.400,0.000
189912.300,192116.200,196394.100,244412.000,70108.840,199666.700,190015.000,687955.600,0.000
189923.000,192128.400,196409.500,244681.700,70133.160,199676.900,190052.300,688279.200,0.000
189906.400,192107.800,196381.500,244303.300,70100.350,199664.800,190007.000,687980.800,0.000
189932.100,192134.400,196414.300,244466.300,70146.750,199680.800,190080.600,688273.400,0.000
189934.200,192128.500,196403.000,244499.700,70126.190,199683.800,190041.500,688401.200,0.000
189945.400,192133.700,196408.100,244435.700,70128.690,199687.200,190039.800,688117.100,0.000
189943.800,192136.500,196410.800,244685.500,70139.950,199686.800,190064.300,688431.900,0.000
189934.700,192124.400,196391.200,244306.800,70111.520,199679.100,190019.700,688147.700,0.000
189949.200,192143.400,196416.600,244448.200,70148.000,199687.800,190082.900,688435.400,0.000
189955.100,192144.900,196413.600,244484.400,70134.770,199693.400,190049.800,688573.500,0.000
189974.700,192158.700,196432.100,244424.800,70148.360,199704.200,190054.100,688296.300,0.000
189985.300,192169.400,196445.100,244682.500,70163.380,199705.700,190078.800,688619.000,0.000
189983.900,192155.800,196426.100,244308.000,70134.680,199696.300,190033.900,688336.700,0.000
189995.200,192162.300,196442.300,244455.300,70161.770,199689.700,190082.500,688619.400,0.000
189988.900,192144.400,196422.000,244484.800,70129.850,199677.700,190029.700,688761.000,0.000
190017.200,192167.200,196448.400,244439.200,70157.130,199704.200,190051.500,688503.300,0.000
190017.000,192171.800,196451.700,244691.800,70168.120,199705.600,190077.000,688828.900,0.000
190023.700,192179.200,196451.000,244336.000,70161.050,199717.200,190051.300,688577.800,0.000
190039.900,192202.200,196480.300,244489.300,70201.290,199727.500,190114.700,688877.500,0.000
190025.100,192183.100,196456.100,244512.700,70167.590,199713.700,190061.200,689020.800,0.000
190033.300,192185.300,196459.200,244438.800,70165.350,199714.500,190056.000,688760.100,0.000
190042.500,192193.400,196472.600,244695.600,70185.200,199722.500,190090.900,689094.400,0.000
190027.000,192173.800,196447.300,244316.800,70149.970,199706.500,190039.500,688819.600,0.000
190031.900,192183.900,196465.200,244457.000,70181.350,199706.700,190096.500,689115.500,0.000
190023.000,192173.900,196456.200,244503.600,70166.960,199704.600,190058.100,689278.600,0.000
190015.900,192168.000,196450.800,244420.900,70157.300,199698.800,190045.100,689001.800,0.000
190021.900,192183.000,196468.300,244685.500,70182.600,199712.300,190084.600,689334.000,0.000
190007.400,192172.100,196446.800,244308.900,70155.520,199708.600,190043.900,689064.200,0.000
190011.000,192185.300,196461.700,244437.700,70184.840,199712.000,190103.700,689343.600,0.000
190005.400,192173.500,196445.000,244478.700,70160.790,199708.600,190059.400,689497.300,0.000
189999.000,192161.100,196436.400,244391.100,70149.340,199699.300,190044.700,689196.100,0.000
189992.900,192158.200,196439.000,244643.100,70156.140,199690.800,190064.000,689503.100,0.000
189990.500,192155.700,196431.600,244280.600,70140.310,199693.500,190026.800,689228.300,0.000
190007.900,192179.400,196463.200,244434.900,70183.950,199713.600,190093.900,689507.200,0.000
189988.500,192159.100,196441.100,244470.100,70154.440,199700.900,190041.600,689627.700,0.000
189976.700,192147.500,196431.100,244377.400,70141.660,199688.200,190019.300,689301.100,0.000
189969.200,192148.400,196434.800,244635.200,70155.600,199690.100,190043.800,689594.600,0.000
189949.300,192130.000,196408.600,244257.700,70125.380,199681.400,189998.200,689285.900,0.000
189956.500,192140.800,196423.300,244395.100,70154.620,199681.500,190054.000,689521.300,0.000
189963.000,192139.900,196414.300,244445.600,70138.520,199684.500,190018.700,689639.500,0.000
189971.900,192142.700,196415.300,244360.700,70137.450,199687.800,190013.400,689300.600,0.000
189967.700,192140.300,196416.900,244620.700,70146.210,199685.000,190036.000,689577.200,0.000
189961.800,192132.400,196405.100,244254.900,70125.650,199687.800,190002.600,689259.500,0.000
189966.800,192149.500,196429.500,244399.000,70162.840,199696.200,190066.500,689483.900,0.000
189962.500,192149.500,196427.300,244450.800,70153.280,199703.400,190035.800,689577.800,0.000
189949.800,192140.300,196417.800,244351.100,70139.510,199694.900,190017.000,689206.300,0.000
189940.000,192140.600,196417.800,244605.100,70149.520,199691.400,190038.200,689453.300,0.000
189920.700,192124.200,196391.600,244232.000,70117.780,199681.500,189992.600,689111.600,0.000
189941.700,192148.200,196421.200,244378.700,70160.790,199695.200,190062.800,689329.300,0.000
189944.300,192142.400,196408.900,244422.500,70140.310,199694.800,190024.500,689405.500,0.000
189957.000,192145.200,196412.000,244336.200,70137.630,199693.800,190014.300,689027.500,0.000
189948.900,192133.600,196407.400,244588.300,70138.980,199680.600,190029.900,689250.300,0.000
189957.000,192133.700,196405.800,244239.800,70125.560,199687.200,190001.500,688911.400,0.000
189966.600,192147.600,196430.500,244379.200,70161.150,199689.500,190060.600,689092.500,0.000
189934.100,192117.200,196395.300,244408.200,70120.550,199668.100,189998.200,689129.900,0.000
189930.300,192118.400,196394.100,244328.500,70121.000,199673.800,189992.600,688737.200,0.000
189929.000,192131.000,196404.300,244602.900,70142.100,199682.300,190028.500,688968.900,0.000
189935.100,192144.500,196406.500,244258.700,70138.880,199706.000,190015.700,688618.600,0.000
189953.800,192169.900,196439.500,244404.400,70184.660,199722.800,190087.400,688784.900,0.000
189926.600,192132.000,196402.400,244439.000,70135.760,199689.300,190015.600,688817.700,0.000
189935.400,192127.400,196399.300,244346.400,70127.620,199682.500,190001.500,688401.800,0.000
189943.500,192132.400,196407.700,244612.300,70141.660,199677.400,190027.100,688612.200,0.000
189944.800,192127.600,196398.000,244255.000,70122.610,199676.700,189990.500,688250.700,0.000
189968.600,192155.700,196433.900,244406.600,70170.450,199698.600,190067.100,688438.500,0.000
189953.900,192139.500,196416.700,244448.200,70145.230,199691.800,190023.600,688493.500,0.000
189940.100,192127.500,196407.300,244346.700,70133.880,199681.900,190007.300,688087.100,0.000
189934.000,192131.200,196413.500,244613.300,70149.430,199681.900,190036.200,688316.600,0.000
189924.500,192127.000,196400.400,244262.600,70132.890,199685.000,190005.100,687974.000,0.000
189928.400,192142.600,196421.200,244402.100,70169.550,199693.400,190070.000,688159.900,0.000
189911.300,192123.700,196397.300,244449.100,70137.540,199681.900,190022.700,688227.900,0.000
189916.200,192123.400,196397.000,244359.400,70133.160,199681.800,190013.700,687836.500,0.000
189922.400,192129.700,196406.200,244621.900,70146.750,199680.500,190039.700,688068.400,0.000
189931.000,192130.200,196399.400,244270.400,70126.990,199681.600,190003.400,687783.500,0.000
189944.200,192144.800,196420.000,244402.900,70158.550,199685.000,190060.800,687986.200,0.000
189933.300,192130.400,196400.200,244454.600,70132.980,199680.600,190017.600,688060.900,0.000
189936.300,192134.400,196403.500,244371.800,70134.320,199686.000,190011.800,687727.400,0.000
189928.800,192137.500,196406.800,244635.200,70147.020,199685.500,190037.900,687941.900,0.000
189902.900,192115.400,196376.900,244263.500,70111.520,199670.500,189985.400,687668.700,0.000
189916.700,192136.000,196405.100,244403.400,70153.280,199683.500,190053.700,687882.900,0.000
189913.800,192126.300,196395.500,244466.700,70136.020,199681.400,190020.100,687980.600,0.000
189908.600,192114.000,196386.400,244375.000,70123.770,199672.900,190005.000,687679.000,0.000
189901.600,192106.800,196383.800,244634.300,70127.880,199665.400,190027.900,687897.900,0.000
189901.100,192101.600,196371.500,244276.100,70107.050,199667.900,189996.600,687659.300,0.000
189919.700,192125.000,196401.400,244412.000,70147.650,199680.300,190067.400,687891.900,0.000
189909.800,192111.300,196381.300,244458.200,70118.590,199668.400,190021.500,687969.300,0.000
189916.300,192116.700,196382.200,244370.100,70117.780,199671.800,190012.700,687672.800,0.000
189928.500,192138.200,196401.900,244653.500,70148.360,199689.000,190056.300,687910.100,0.000
189922.700,192131.800,196386.700,244296.700,70126.990,199688.300,190018.200,687661.100,0.000
189927.400,192141.100,196405.500,244419.400,70155.520,199687.700,190071.900,687867.200,0.000
189902.300,192112.100,196375.900,244459.300,70116.620,199665.300,190015.500,687947.800,0.000
189906.600,192109.000,196377.400,244367.300,70112.870,199663.200,190004.500,687648.300,0.000
189913.800,192116.900,196390.800,244638.800,70130.480,199664.200,190031.800,687879.100,0.000
189905.300,192104.700,196372.700,244272.700,70103.660,199656.700,189987.900,687641.300,0.000
189919.800,192125.300,196400.600,244403.700,70143.270,199667.100,190052.800,687873.000,0.000
189912.500,192117.200,196388.300,244463.400,70123.690,199667.800,190016.800,687961.300,0.000
189930.500,192134.700,196403.500,244385.000,70139.060,199690.800,190026.400,687671.300,0.000
189929.800,192138.600,196406.900,244649.300,70150.060,199684.500,190047.300,687889.000,0.000
189913.200,192115.600,196377.700,244275.100,70111.160,199665.500,189991.800,687629.400,0.000
189934.700,192138.900,196408.900,244412.400,70156.320,199681.000,190062.800,687859.100,0.000
189929.800,192130.100,196396.800,244476.600,70138.170,199678.600,190027.300,687959.400,0.000
189925.500,192120.900,196391.400,244373.900,70129.050,199672.500,190013.000,687651.600,0.000
189917.000,192118.100,196393.500,244628.800,70135.220,199661.900,190031.900,687852.300,0.000
189906.500,192107.400,196377.700,244269.400,70108.480,199653.200,189988.800,687615.900,0.000
189925.500,192134.800,196411.100,244413.300,70154.530,199672.100,190061.700,687862.000,0.000
189918.800,192124.700,196397.000,244474.200,70132.000,199668.000,190022.800,687946.300,0.000
189930.700,192130.600,196403.300,244391.100,70135.220,199676.100,190020.700,687647.900,0.000
189937.200,192141.200,196416.800,244662.100,70155.960,199683.700,190057.700,687860.400,0.000
189928.100,192128.100,196396.600,244301.500,70125.830,199675.600,190010.700,687622.800,0.000
189937.400,192141.100,196413.600,244419.700,70155.420,199679.400,190065.000,687839.500,0.000
189923.500,192127.800,196392.700,244475.300,70131.460,199671.700,190023.500,687938.100,0.000
189918.400,192121.600,196385.800,244369.500,70125.830,199668.300,190008.800,687661.800,0.000
189914.600,192124.100,196391.500,244639.000,70141.840,199667.900,190037.600,687901.500,0.000
189909.100,192117.100,196377.600,244279.500,70119.130,199663.900,189998.700,687680.400,0.000
189924.400,192131.900,196404.100,244398.100,70155.780,199670.000,190063.100,687929.100,0.000
189914.200,192115.400,196385.800,244461.800,70128.870,199660.200,190020.500,688069.700,0.000
189911.100,192106.900,196377.300,244362.600,70117.420,199652.600,190002.700,687774.800,0.000
189914.400,192116.200,196387.400,244639.000,70135.760,199656.300,190036.600,688103.800,0.000
189904.300,192103.400,196365.200,244272.900,70105.530,199650.200,189992.300,687855.500,0.000
189911.600,192116.900,196384.800,244387.500,70137.450,199655.300,190049.400,688129.100,0.000
189903.400,192106.900,196371.100,244452.400,70114.560,199648.500,190006.100,688338.400,0.000
189911.800,192110.900,196376.400,244351.000,70114.380,199654.100,190000.400,688040.200,0.000
189918.500,192121.200,196390.800,244631.100,70138.440,199663.600,190039.700,688382.300,0.000
189907.700,192108.700,196371.300,244272.400,70111.700,199656.600,189996.500,688140.600,0.000
189916.000,192124.100,196393.100,244388.700,70145.950,199658.600,190055.100,688397.100,0.000
189907.000,192113.100,196376.700,244455.300,70122.610,199652.700,190016.600,688582.800,0.000
189899.800,192100.800,196364.000,244341.500,70104.730,199640.600,189989.900,688252.600,0.000
189904.300,192112.200,196378.000,244616.900,70126.730,199648.800,190025.400,688570.400,0.000
189897.800,192104.900,196363.800,244267.300,70103.480,199647.400,189984.600,688321.300,0.000
189907.300,192119.100,196386.200,244381.400,70137.370,199653.700,190044.700,688558.500,0.000
189907.500,192111.000,196376.500,244452.700,70120.820,199652.000,190009.900,688736.100,0.000
189909.200,192105.400,196374.500,244361.600,70113.940,199649.900,189994.800,688422.300,0.000
189911.700,192116.300,196389.000,244647.300,70135.130,199655.100,190029.400,688738.600,0.000
189900.700,192104.300,196368.600,244283.500,70108.130,199648.300,189986.300,688444.100,0.000
189908.300,192117.100,196387.400,244393.100,70140.940,199651.200,190042.200,688647.700,0.000
189902.300,192106.300,196373.800,244454.200,70117.420,199645.000,190000.500,688776.000,0.000
189914.500,192114.600,196381.400,244361.200,70119.480,199653.200,189994.100,688412.600,0.000
189915.100,192120.900,196387.600,244627.300,70136.110,199657.100,190025.200,688660.700,0.000
189915.500,192118.600,196376.500,244272.100,70119.570,199660.000,189988.200,688331.100,0.000
189932.200,192137.900,196402.500,244386.600,70158.910,199669.400,190050.000,688491.400,0.000
189925.900,192128.800,196389.700,244449.600,70139.240,199667.700,190014.300,688581.100,0.000
189930.300,192131.800,196393.500,244337.200,70139.420,199672.700,190006.700,688158.800,0.000
189921.300,192130.000,196395.300,244595.000,70150.690,199666.000,190032.400,688353.800,0.000
189907.400,192115.800,196374.000,244225.000,70124.040,199660.000,189992.000,687970.400,0.000
189922.300,192136.000,196399.600,244333.500,70162.040,199670.900,190057.000,688079.300,0.000
189917.200,192125.300,196384.600,244399.800,70139.060,199665.100,190016.900,688149.100,0.000
189930.400,192133.200,196390.300,244296.100,70139.690,199674.900,190012.000,687745.000,0.000
189932.200,192140.600,196398.200,244569.600,70154.980,199676.500,190043.500,687911.400,0.000
189922.900,192131.500,196380.600,244214.800,70129.320,199675.000,190006.000,687627.400,0.000
189925.500,192138.600,196395.100,244315.800,70154.440,199672.100,190056.300,687759.800,0.000
189909.600,192118.300,196372.700,244383.800,70124.310,199657.800,190010.900,687822.700,0.000
189921.800,192127.800,196384.500,244289.200,70129.590,199669.800,190010.000,687527.900,0.000
189919.600,192130.500,196391.700,244565.700,70144.880,199666.200,190036.700,687674.800,0.000
189901.600,192110.500,196364.100,244210.000,70110.360,199649.600,189980.800,687456.900,0.000
189927.600,192141.100,196400.500,244342.100,70160.160,199671.500,190058.000,687621.600,0.000
189923.800,192133.400,196389.400,244429.800,70142.820,199669.300,190024.100,687701.500,0.000
189921.700,192123.700,196380.800,244319.600,70130.210,199660.400,190000.400,687432.100,0.000
189935.400,192143.500,196404.200,244621.600,70160.250,199673.000,190043.800,687593.700,0.000
189933.600,192145.900,196397.700,244285.600,70144.070,199678.800,190012.800,687416.300,0.000
189931.600,192147.900,196409.800,244395.900,70168.210,199675.100,190064.400,687586.300,0.000
189914.100,192128.000,196386.100,244467.500,70140.310,199665.500,190022.700,687669.100,0.000
189916.200,192127.200,196384.200,244359.800,70135.580,199665.900,190010.700,687433.600,0.000
189911.400,192123.300,196384.100,244641.000,70144.960,199658.700,190035.100,687605.900,0.000
189902.800,192112.200,196366.300,244299.200,70119.480,199656.900,189995.900,687439.600,0.000
189918.500,192131.500,196393.900,244418.000,70159.360,199669.100,190063.200,687646.900,0.000
189903.200,192111.700,196370.300,244495.300,70130.130,199655.000,190017.900,687750.800,0.000
189907.500,192110.200,196369.600,244386.800,70127.080,199656.400,190003.200,687519.100,0.000
189916.600,192126.000,196386.400,244679.800,70153.010,199668.300,190043.800,687724.700,0.000
189899.200,192106.500,196360.400,244317.500,70117.780,199653.800,189989.800,687519.500,0.000
189929.100,192142.000,196401.300,244447.500,70168.740,199677.800,190067.100,687730.700,0.000
189914.400,192128.000,196379.800,244524.300,70138.800,199667.700,190022.300,687851.400,0.000
189911.100,192119.100,196372.000,244396.800,70127.260,199663.000,189999.400,687571.300,0.000
189923.100,192136.000,196391.600,244691.900,70155.160,199673.500,190039.400,687796.500,0.000
189910.200,192122.900,196373.800,244339.700,70130.480,199667.600,190000.000,687588.500,0.000
189911.500,192130.400,196388.800,244440.400,70161.500,199667.600,190057.000,687784.100,0.000
189898.600,192115.800,196369.300,244513.700,70137.090,199659.700,190017.800,687910.800,0.000
189901.000,192114.200,196367.100,244394.600,70130.660,199660.000,189999.800,687628.300,0.000
189900.300,192116.500,196374.300,244673.000,70145.410,199657.000,190024.300,687862.600,0.000
189890.600,192102.900,196354.800,244323.000,70116.800,199647.000,189968.500,687645.800,0.000
189895.800,192109.200,196369.700,244427.500,70141.840,199643.500,190008.300,687850.600,0.000
189895.200,192100.600,196359.200,244514.000,70121.540,199636.600,189971.300,687987.100,0.000
189896.800,192095.600,196354.200,244383.500,70110.720,199633.700,189962.800,687662.300,0.000
189898.300,192106.300,196366.500,244663.500,70133.790,199642.200,190007.100,687890.900,0.000
189894.900,192105.600,196357.500,244318.300,70120.290,199649.600,189978.200,687660.900,0.000
189901.100,192124.700,196379.700,244424.900,70157.840,199663.300,190045.700,687865.300,0.000
189893.700,192119.300,196369.800,244505.900,70140.590,199662.300,190013.900,687990.800,0.000
189910.700,192138.200,196387.200,244393.800,70151.670,199679.900,190013.900,687671.700,0.000
189903.900,192135.500,196390.400,244661.000,70163.380,199674.700,190039.500,687886.900,0.000
189891.800,192117.700,196368.900,244295.900,70134.320,199664.400,189994.000,687639.100,0.000
189898.900,192129.300,196388.500,244399.600,70167.850,199670.500,190056.400,687837.800,0.000
189901.700,192127.200,196382.500,244489.700,70154.890,199674.800,190027.700,687981.000,0.000
189896.300,192113.300,196370.500,244342.000,70135.840,199663.600,189997.100,687661.600,0.000
189885.800,192109.600,196369.300,244610.700,70142.460,199655.900,190018.600,687884.200,0.000
189888.800,192111.800,196363.900,244273.600,70128.690,199662.200,189986.300,687671.800,0.000
189913.200,192140.200,196401.900,244392.000,70176.340,199680.600,190058.900,687906.800,0.000
189910.400,192133.600,196394.100,244475.400,70160.880,199676.800,190026.100,688056.600,0.000
189915.300,192135.200,196393.700,244346.000,70153.910,199678.300,190010.600,687725.200,0.000
189905.600,192131.900,196391.000,244623.000,70159.540,199669.400,190033.600,687985.800,0.000
189884.200,192107.200,196358.900,244260.600,70121.900,199652.700,189979.700,687739.600,0.000
189880.600,192111.500,196368.500,244347.000,70145.950,199649.700,190029.700,687932.000,0.000
189880.700,192112.100,196364.500,244448.900,70136.650,199657.100,190006.500,688111.600,0.000
189882.400,192108.700,196359.100,244312.800,70126.010,199649.200,189979.800,687772.300,0.000
189892.700,192120.300,196375.200,244598.100,70148.090,199650.500,190012.000,688051.800,0.000
189902.600,192124.800,196375.200,244275.100,70139.600,199665.000,189989.300,687830.800,0.000
189918.500,192141.000,196399.300,244377.900,70174.020,199669.400,190049.900,688048.900,0.000
189906.100,192120.000,196376.900,244461.000,70143.090,199653.400,190005.800,688239.400,0.000
189915.900,192122.200,196379.700,244336.900,70140.670,199659.500,189995.900,687904.300,0.000
189912.900,192125.100,196384.000,244617.400,70155.780,199660.000,190026.800,688217.700,0.000
189902.500,192115.700,196366.400,244281.300,70132.890,199656.400,189985.000,687980.100,0.000
189918.700,192138.900,196396.200,244386.800,70175.090,199670.000,190050.100,688206.100,0.000
189917.300,192133.000,196387.700,244484.600,70159.270,199670.600,190018.400,688438.500,0.000
189926.500,192137.300,196389.300,244356.300,70156.950,199675.000,190004.800,688108.600,0.000
189933.200,192148.800,196402.300,244645.000,70179.200,199680.600,190042.200,688434.900,0.000
189925.100,192136.300,196382.800,244306.200,70153.010,199677.200,190003.100,688195.400,0.000
189954.400,192167.300,196419.500,244415.700,70200.480,199701.000,190077.700,688420.200,0.000
189927.300,192134.500,196385.800,244490.200,70158.820,199675.700,190023.200,688622.800,0.000
189924.400,192123.000,196376.300,244346.200,70143.530,199666.400,189997.900,688271.600,0.000
189934.900,192139.500,196395.900,244635.300,70173.390,199680.700,190043.100,688595.700,0.000
189924.500,192130.600,196378.500,244293.900,70148.720,199679.600,190002.700,688352.100,0.000
189933.800,192140.300,196398.400,244381.600,70179.380,199676.800,190054.800,688549.800,0.000
189937.500,192136.100,196394.400,244476.600,70166.870,199675.600,190024.100,688762.300,0.000
189944.000,192133.000,196392.500,244344.200,70156.670,199671.500,189999.700,688418.200,0.000
189945.400,192137.800,196397.500,244627.400,70170.710,199670.500,190029.800,688727.100,0.000
189955.200,192146.900,196393.400,244305.700,70161.230,199685.700,190007.800,688498.100,0.000
189974.200,192169.500,196420.300,244401.400,70202.090,199700.200,190075.600,688696.300,0.000
189965.600,192156.700,196406.000,244486.800,70179.660,199694.000,190039.700,688894.800,0.000
189967.200,192155.100,196402.600,244351.400,70169.200,199691.800,190016.900,688540.800,0.000
189975.300,192164.000,196417.000,244635.500,70191.450,199693.300,190048.900,688833.700,0.000
189970.000,192151.400,196401.500,244298.500,70166.330,199687.600,190005.400,688575.300,0.000
190000.700,192181.500,196440.900,244416.700,70217.470,199709.000,190084.300,688793.700,0.000
190016.300,192188.700,196445.000,244536.500,70213.900,199719.200,190068.200,689033.300,0.000
190020.400,192185.500,196438.600,244404.800,70201.830,199715.600,190046.600,688689.000,0.000
190005.400,192172.800,196429.200,244671.300,70201.110,199699.100,190063.800,688969.500,0.000
190004.600,192169.700,196416.200,244348.700,70183.140,199702.900,190031.300,688721.800,0.000
190019.300,192187.200,196438.200,244450.200,70216.310,199704.600,190086.000,688912.600,0.000
190007.800,192172.300,196420.100,244542.800,70188.950,199692.600,190044.900,689109.300,0.000
190005.400,192168.600,196415.000,244406.200,70178.310,199690.800,190025.600,688737.100,0.000
190006.000,192172.900,196426.800,244694.900,70199.050,199690.900,190059.200,689019.900,0.000
189997.300,192161.200,196410.700,244366.400,70175.980,199687.500,190018.100,688757.100,0.000
190003.200,192174.400,196432.000,244463.300,70211.210,199696.900,190080.900,688926.900,0.000
189979.800,192152.400,196407.100,244552.100,70181.710,199686.400,190041.300,689108.600,0.000
189974.500,192144.100,196398.200,244405.700,70167.490,199681.200,190020.800,688716.200,0.000
189969.000,192144.100,196401.600,244679.300,70178.310,199674.900,190044.300,688968.300,0.000
189972.000,192148.700,196396.400,244354.000,70162.660,199682.500,190012.300,688694.200,0.000
189995.600,192183.500,196433.400,244459.400,70210.500,199705.000,190085.100,688856.300,0.000
189977.200,192163.200,196411.000,244551.600,70185.460,199695.900,190044.400,689027.500,0.000
189969.300,192154.500,196400.100,244402.500,70173.130,199690.900,190020.100,688617.900,0.000
189966.500,192161.500,196406.800,244686.200,70189.660,199689.800,190052.300,688873.100,0.000
189958.300,192147.900,196389.000,244353.900,70162.400,199686.400,190007.000,688586.800,0.000
189976.100,192164.500,196417.000,244452.600,70202.090,199695.600,190067.100,688745.700,0.000
189957.400,192141.300,196393.300,244539.200,70170.450,199678.800,190023.400,688916.800,0.000
189951.800,192130.200,196381.500,244385.700,70151.310,199667.700,189995.800,688505.600,0.000
189961.900,192140.900,196400.100,244677.500,70178.490,199676.500,190040.300,688768.100,0.000
189939.100,192117.300,196370.200,244328.500,70139.600,199657.200,189981.400,688455.300,0.000
189945.100,192134.700,196390.800,244419.900,70172.500,199662.200,190039.100,688596.600,0.000
189934.000,192127.400,196376.500,244519.500,70156.770,199660.900,190008.900,688772.100,0.000
189941.400,192131.800,196377.300,244379.200,70157.390,199670.500,189998.200,688371.600,0.000
189945.000,192140.800,196389.200,244665.300,70181.710,199680.500,190038.800,688621.700,0.000
189930.200,192122.000,196365.500,244321.800,70148.540,199670.200,189989.800,688314.500,0.000
189944.800,192136.200,196392.000,244411.500,70182.160,199673.500,190047.000,688451.800,0.000
189952.700,192142.600,196395.400,244531.800,70178.490,199686.700,190030.600,688645.300,0.000
189948.700,192134.200,196384.600,244385.300,70162.040,199679.800,190005.600,688242.100,0.000
189952.400,192139.800,196394.000,244669.700,70180.100,199679.900,190039.500,688495.600,0.000
189938.300,192126.400,196371.600,244332.400,70149.260,199669.800,189993.900,688185.900,0.000
189944.800,192142.600,196393.900,244425.200,70183.140,199675.800,190052.800,688323.400,0.000
189940.000,192136.200,196384.900,244524.100,70168.030,199677.100,190024.500,688492.600,0.000
189942.500,192132.200,196381.200,244370.700,70157.130,199674.500,190001.500,688070.600,0.000
189937.300,192133.300,196386.200,244650.900,70171.610,199668.100,190031.000,688310.300,0.000
189926.600,192123.400,196369.600,244324.300,70148.090,199665.300,189991.500,688020.600,0.000
189945.700,192144.900,196399.800,244421.300,70189.840,199679.700,190060.800,688171.100,0.000
189939.700,192137.400,196390.300,244524.800,70173.840,199679.600,190032.100,688355.600,0.000
189928.400,192123.600,196375.700,244365.300,70153.280,199666.200,189999.400,687938.000,0.000
189920.400,192121.000,196377.900,244646.400,70165.980,199657.200,190025.500,688197.300,0.000
189905.300,192108.000,196356.000,244309.600,70137.630,199649.800,189980.800,687916.400,0.000
189916.600,192127.500,196378.900,244404.600,70176.440,199662.900,190045.900,688083.200,0.000
189909.300,192121.600,196367.600,244508.800,70163.290,199664.500,190021.800,688276.400,0.000
189921.300,192124.500,196371.000,244362.100,70160.070,199667.600,190004.500,687881.900,0.000
189920.500,192128.100,196380.900,244657.000,70179.830,199666.700,190038.400,688164.200,0.000
189905.300,192112.700,196361.300,244321.800,70148.980,199657.900,189993.500,687906.500,0.000
189916.400,192125.700,196384.800,244406.400,70180.190,199662.000,190048.900,688063.900,0.000
189907.500,192115.000,196371.100,244510.800,70159.540,199655.700,190012.600,688249.400,0.000
189907.900,192114.700,196365.700,244360.100,70149.970,199660.100,189993.500,687853.900,0.000
189907.200,192120.900,196373.300,244640.900,70168.210,199662.400,190028.500,688111.700,0.000
189904.400,192112.800,196358.200,244310.300,70145.950,199661.300,189988.500,687850.800,0.000
189925.700,192134.500,196385.800,244404.400,70186.090,199673.600,190054.000,688011.100,0.000
189914.600,192120.700,196367.100,244512.100,70164.550,199667.800,190021.800,688180.100,0.000
189897.100,192098.500,196344.400,244341.500,70135.580,199649.600,189983.400,687767.800,0.000
189909.000,192115.000,196365.100,244631.000,70164.990,199661.100,190030.100,688017.500,0.000
189926.200,192132.900,196376.500,244332.000,70167.130,199687.200,190016.500,687808.300,0.000
189929.000,192139.700,196390.700,244409.600,70191.270,199684.900,190062.300,687975.000,0.000
189922.200,192127.500,196376.400,244514.200,70167.410,199673.200,190022.100,688155.000,0.000
189934.800,192133.200,196383.200,244368.700,70169.200,199684.100,190010.300,687783.700,0.000
189934.300,192136.600,196390.600,244653.100,70186.090,199684.500,190041.300,688046.800,0.000
189914.800,192115.700,196362.000,244318.300,70151.220,199669.400,189990.500,687800.700,0.000
189918.400,192125.000,196376.000,244400.600,70181.090,199670.800,190047.400,687970.800,0.000
189911.800,192119.200,196360.500,244504.700,70163.020,199664.400,190015.100,688164.400,0.000
189910.600,192110.300,196352.100,244349.300,70150.690,199662.700,189993.100,687793.800,0.000
189908.300,192112.700,196360.000,244637.100,70167.130,199662.900,190025.600,688075.900,0.000
189898.300,192100.300,196342.700,244303.300,70138.520,199655.400,189979.400,687839.200,0.000
189916.300,192124.100,196372.100,244394.700,70177.870,199665.100,190040.300,688047.300,0.000
189929.800,192134.800,196378.100,244522.500,70176.880,199677.700,190023.200,688309.400,0.000
189931.700,192130.900,196373.400,244368.000,70165.620,199677.700,190001.200,687963.100,0.000
189923.100,192124.800,196371.000,244648.100,70170.800,199663.000,190021.800,688276.300,0.000
189914.400,192113.500,196352.000,244324.500,70143.270,199658.000,189979.600,688067.600,0.000
189945.800,192151.300,196394.300,244427.900,70196.820,199687.500,190060.300,688294.600,0.000
189943.400,192149.700,196387.900,244554.200,70185.640,199690.900,190039.700,688584.400,0.000
189935.700,192136.000,196373.800,244384.400,70163.830,199675.400,190001.400,688240.300,0.000
189923.500,192127.700,196371.300,244662.700,70170.450,199663.000,190026.300,688564.100,0.000
189925.700,192127.500,196366.400,244346.400,70156.230,199671.500,189996.400,688366.800,0.000
189934.000,192139.300,196388.400,244421.200,70190.290,199674.900,190054.900,688553.700,0.000
189916.900,192120.500,196367.800,244533.700,70164.270,199662.200,190016.500,688813.200,0.000
189924.200,192119.600,196364.800,244362.200,70153.910,199662.800,189993.300,688437.300,0.000
189914.200,192118.400,196365.500,244648.400,70166.420,199658.000,190025.000,688726.700,0.000
189914.900,192121.100,196358.200,244344.100,70153.550,199668.000,189993.500,688507.400,0.000
189943.800,192153.800,196396.500,244436.800,70202.900,199691.700,190063.200,688679.100,0.000
189925.500,192134.500,196376.700,244545.000,70178.130,199679.500,190026.300,688881.300,0.000
189928.500,192130.300,196374.600,244375.800,70167.310,199678.300,190000.800,688450.100,0.000
189937.000,192145.500,196394.700,244672.300,70193.690,199686.000,190043.300,688697.900,0.000
189924.500,192135.100,196377.300,244350.700,70167.490,199680.800,190002.200,688406.900,0.000
189933.300,192150.900,196401.300,244428.400,70203.340,199688.200,190062.400,688526.600,0.000
189933.300,192150.000,196398.400,244558.100,70196.460,199692.700,190042.900,688748.600,0.000
189930.700,192147.900,196391.000,244393.000,70185.550,199696.900,190022.700,688350.100,0.000
189928.900,192153.400,196397.500,244679.000,70205.310,199700.300,190063.200,688621.800,0.000
189925.500,192146.100,196383.500,244361.600,70184.390,199700.200,190026.800,688374.100,0.000
189948.500,192167.100,196413.800,244441.600,70224.090,199712.200,190089.600,688532.300,0.000
189945.300,192162.100,196403.300,244557.800,70208.090,199713.100,190061.200,688767.400,0.000
189939.200,192151.800,196391.200,244385.200,70189.310,199705.100,190026.900,688378.500,0.000
189931.500,192147.400,196393.000,244668.500,70197.800,199691.100,190049.800,688655.300,0.000
189916.900,192132.900,196373.000,244346.800,70170.090,199684.500,190008.700,688394.900,0.000
189918.500,192143.600,196388.500,244418.200,70201.200,199689.700,190064.300,688524.400,0.000
189930.100,192152.600,196393.700,244547.900,70201.110,199703.700,190045.500,688751.600,0.000
189926.500,192137.300,196378.000,244372.400,70176.440,199689.300,189997.500,688342.400,0.000
189910.800,192124.300,196368.000,244657.500,70177.330,199674.800,190013.400,688621.200,0.000
189903.100,192112.300,196347.900,244339.800,70150.150,199671.800,189973.800,688384.100,0.000
189914.200,192121.700,196365.800,244409.500,70176.700,199668.400,190025.200,688534.300,0.000
189909.700,192114.900,196356.000,244532.800,70160.610,199663.100,189994.200,688775.000,0.000
189920.800,192125.100,196363.100,244378.700,70161.860,199675.900,189987.300,688393.800,0.000
189916.700,192126.800,196369.400,244662.000,70177.410,199669.900,190012.400,688654.900,0.000
189911.000,192116.100,196353.800,244341.600,70151.220,199665.000,189962.800,688398.600,0.000
189927.200,192133.500,196381.000,244421.600,70187.970,199673.100,190021.000,688551.700,0.000
189930.000,192128.800,196375.500,244550.500,70176.080,199671.800,189996.700,688790.900,0.000
189930.000,192121.800,196368.100,244385.000,70162.580,199668.400,189971.400,688398.600,0.000
189932.100,192129.500,196378.200,244680.400,70183.850,199670.900,190013.700,688679.600,0.000
189929.200,192126.000,196365.000,244368.300,70163.910,199675.800,189982.000,688431.200,0.000
189936.700,192142.100,196385.700,244439.500,70197.800,199687.200,190043.100,688567.500,0.000
189904.800,192114.900,196352.800,244546.100,70160.430,199664.700,189994.200,688778.100,0.000
189912.700,192120.000,196353.200,244380.800,70152.560,199668.000,189968.600,688357.900,0.000
189927.200,192139.100,196375.300,244681.500,70187.700,199682.300,190019.300,688607.800,0.000
189922.300,192131.000,196361.500,244373.300,70168.390,199682.500,189982.100,688325.100,0.000
189925.400,192136.100,196376.300,244437.700,70194.950,199681.600,190030.600,688416.000,0.000
189910.100,192117.500,196356.200,244558.400,70171.250,199671.400,189994.200,688600.600,0.000
189910.200,192116.500,196350.800,244394.800,70161.230,199675.200,189971.000,688157.300,0.000
189901.500,192116.500,196350.400,244679.700,70173.220,199669.800,189999.900,688376.900,0.000
189904.700,192116.800,196343.800,244367.600,70156.770,199674.900,189966.700,688075.100,0.000
189924.200,192139.300,196373.600,244431.500,70195.920,199686.300,190027.500,688143.100,0.000
189905.300,192118.000,196351.000,244547.000,70168.030,199670.300,189987.400,688308.300,0.000
189904.700,192112.300,196342.500,244371.800,70154.800,199668.400,189963.200,687831.000,0.000
189908.400,192121.800,196354.800,244671.300,70179.020,199673.000,190005.300,688045.300,0.000
189903.900,192112.300,196340.300,244367.400,70153.450,199668.000,189962.400,687788.300,0.000
189921.300,192134.800,196367.100,244439.700,70190.380,199681.400,190024.400,687897.600,0.000
189909.600,192121.500,196349.200,244560.000,70168.660,199670.400,189986.100,688060.300,0.000
189919.200,192123.900,196350.200,244392.600,70163.380,199676.500,189964.700,687673.900,0.000
189923.800,192132.200,196362.400,244685.500,70183.850,199677.000,190003.000,687860.700,0.000
189918.700,192126.800,196349.200,244379.800,70161.050,199677.300,189964.400,687656.000,0.000
189932.800,192142.100,196373.900,244438.300,70193.340,199684.300,190024.200,687783.900,0.000
189931.800,192137.200,196368.900,244568.400,70182.520,199681.400,189999.600,687941.500,0.000
189930.100,192133.900,196364.200,244401.000,70172.680,199683.700,189974.900,687605.300,0.000
189932.500,192145.300,196377.800,244699.800,70196.460,199687.700,190017.300,687787.600,0.000
189912.800,192123.600,196348.100,244376.100,70157.660,199669.900,189958.300,687585.800,0.000
189929.000,192141.300,196373.300,244436.500,70190.650,199675.400,190011.800,687733.900,0.000
189939.700,192143.000,196375.100,244574.000,70185.730,199680.300,189997.400,687912.300,0.000
189947.300,192140.500,196372.100,244410.200,70175.270,199683.300,189978.000,687608.600,0.000
189945.900,192142.400,196379.900,244701.400,70191.550,199679.400,190014.300,687816.400,0.000
189936.700,192130.300,196361.300,244390.700,70162.840,199670.400,189966.700,687636.600,0.000
189936.000,192138.600,196374.600,244446.600,70190.920,199673.000,190018.700,687801.600,0.000
189941.600,192143.600,196377.300,244587.100,70189.400,199685.100,190005.300,688016.900,0.000
189943.200,192141.300,196370.700,244412.800,70174.910,199684.100,189975.200,687671.400,0.000
189942.800,192149.600,196380.100,244705.800,70196.550,199690.300,190016.600,687899.200,0.000
189933.000,192138.200,196361.300,244394.800,70170.270,199684.900,189971.700,687703.400,0.000
189934.400,192143.000,196373.600,244435.700,70193.060,199679.200,190015.900,687847.100,0.000
189915.100,192120.700,196349.700,244561.900,70165.260,199660.600,189975.400,688063.500,0.000
189919.200,192117.600,196346.000,244395.000,70154.890,199662.300,189951.300,687717.300,0.000
189931.200,192138.800,196369.100,244702.700,70188.950,199678.100,190004.000,688005.800,0.000
189932.000,192141.900,196362.700,244397.000,70174.830,199685.900,189971.800,687822.800,0.000
189942.300,192155.600,196383.700,244454.400,70206.920,199688.800,190020.900,688007.000,0.000
189932.700,192142.800,196370.700,244589.900,70188.510,199683.300,189990.900,688274.100,0.000
189923.200,192129.000,196354.900,244409.700,70165.700,199678.300,189956.700,687883.600,0.000
189917.200,192127.700,196357.000,244701.400,70178.940,199670.700,189991.800,688171.200,0.000
189909.500,192117.500,196340.400,244393.600,70153.910,199663.500,189953.700,687941.700,0.000
189930.900,192144.500,196373.900,244452.500,70200.220,199683.000,190026.100,688059.900,0.000
189922.600,192135.400,196361.900,244585.100,70184.570,199676.700,190000.200,688283.400,0.000
