EEG 1, EEG 2, EEG 3, EEG 4, EEG 5, EEG 6, EEG 7, EEG 8, TRIG
52762.240,53813.980,56775.640,146475.600,46567.110,60051.050,54479.060,146475.600,0.000
174382.400,177850.700,187200.000,487151.300,153945.600,198422.700,180026.000,487151.300,0.000
260006.400,265158.700,278058.100,734571.100,229656.500,295711.400,268370.900,734571.100,0.000
279118.300,284623.100,297130.400,801303.100,246734.800,317236.700,288047.300,801303.100,0.000
280182.300,285682.800,297125.300,817789.300,247865.600,318243.500,289087.300,817789.300,0.000
266864.700,272076.800,281971.200,793229.100,236272.000,302909.700,275277.700,793229.100,0.000
240343.500,245005.600,252941.600,730188.300,212996.000,272571.200,247843.800,730188.300,0.000
224567.400,228895.300,235793.400,694636.800,199164.300,254495.500,231510.600,694636.800,0.000
233878.800,238373.500,245765.400,727301.400,207458.600,264995.200,241101.800,727301.400,0.000
249945.800,254741.600,262871.600,778897.900,221714.100,283185.400,257660.800,778897.900,0.000
246723.500,251438.700,259102.000,777435.200,218954.700,279414.100,254298.200,777435.200,0.000
225698.000,229983.100,236281.300,725877.100,200479.700,255390.800,232563.600,725877.100,0.000
211909.100,215910.500,221454.600,692829.800,188363.500,239628.500,218302.500,692829.800,0.000
218878.500,223010.000,229043.300,716399.200,194557.200,247502.200,225485.900,716399.200,0.000
231792.600,236170.700,242898.300,756732.600,205998.400,262137.200,238798.400,756732.600,0.000
229674.800,233998.500,240460.500,755871.400,204180.700,259654.100,236587.100,755871.400,0.000
213533.800,217524.900,222994.000,715684.700,189984.000,241214.600,219902.700,715684.700,0.000
202791.500,206561.000,211480.100,689324.900,180531.200,228939.300,208790.500,688666.600,0.000
207893.800,211761.900,217070.100,706219.100,185059.000,234712.500,214052.100,703271.900,0.000
217587.900,221647.700,227499.600,734297.500,193643.300,245716.600,224053.700,729578.600,0.000
216029.900,220056.200,225731.500,725354.600,192305.900,243909.000,222439.100,724806.300,0.000
203943.000,207725.400,212676.600,679361.000,181677.200,230121.400,209961.500,690675.800,0.000
195722.000,199338.000,203880.600,639758.700,174443.100,220746.300,201471.100,666737.600,0.000
199089.600,202772.300,207592.100,631912.900,177432.500,224562.600,204949.900,674939.100,0.000
205900.300,209716.800,214933.000,635181.900,183460.500,232291.100,211972.300,693271.800,0.000
204730.700,208517.500,213620.600,618952.900,182448.700,230926.400,210750.800,689818.800,0.000
196053.800,199659.300,204256.100,584077.700,174809.000,221015.900,201781.200,665255.900,0.000
189970.500,193446.900,197747.200,556675.300,169444.100,214067.200,195484.500,647394.900,0.000
191856.300,195365.800,199845.700,550640.900,171113.900,216197.000,197428.100,651675.400,0.000
196171.800,199765.700,204512.300,551507.200,174933.200,221096.600,201880.600,663171.300,0.000
195223.900,198799.800,203474.700,539398.300,174116.100,220004.900,200903.700,660329.800,0.000
189292.200,192753.800,197092.400,515177.200,168904.300,213245.200,194788.700,643480.100,0.000
184933.500,188312.700,192439.000,495585.900,165068.500,208284.000,190289.700,630674.500,0.000
185606.400,189000.800,193218.000,489304.400,165669.600,209047.100,190988.000,631868.000,0.000
187891.000,191327.500,195697.500,487444.300,167689.500,211635.900,193341.000,637841.900,0.000
187110.000,190522.000,194849.700,478182.000,167004.300,210724.000,192524.500,635447.400,0.000
183387.600,186716.100,190845.200,462051.900,163725.000,206464.700,188675.100,624767.900,0.000
180439.600,183702.600,187693.300,448316.800,161122.800,203097.600,185620.700,616055.100,0.000
180190.400,183443.900,187463.200,441584.100,160904.800,202803.200,185358.200,614879.800,0.000
180880.500,184145.000,188230.400,437350.800,161516.200,203576.700,186061.800,616497.100,0.000
180189.600,183441.500,187502.200,430049.400,160914.900,202780.000,185347.400,614345.000,0.000
178136.800,181352.700,185313.600,419957.000,159118.400,200440.700,183238.100,608348.800,0.000
176263.000,179446.800,183318.500,410601.500,157474.200,198315.000,181308.600,602760.600,0.000
175315.500,178485.500,182329.900,403484.000,156648.000,197243.500,180339.800,599786.300,0.000
174793.000,177955.400,181792.500,397402.200,156193.000,196649.500,179802.300,598067.300,0.000
174154.700,177303.600,181127.300,391465.200,155634.300,195916.000,179144.200,596009.100,0.000
173343.100,176472.500,180273.400,385761.000,154921.300,194983.000,178309.600,593437.800,0.000
172291.000,175393.500,179148.400,379613.800,153987.100,193777.300,177215.800,590177.800,0.000
170877.600,173945.500,177641.100,372267.300,152736.300,192156.500,175750.300,585957.000,0.000
169498.700,172533.400,176175.700,364881.100,151515.700,190575.700,174315.900,581849.500,0.000
168887.500,171907.400,175545.300,359889.400,150976.500,189872.200,173680.000,579822.800,0.000
168944.800,171968.600,175635.700,357270.000,151033.500,189936.000,173744.900,579662.300,0.000
168479.500,171500.400,175148.300,353437.100,150626.800,189413.000,173267.000,578102.300,0.000
166757.600,169749.600,173312.600,346061.300,149113.000,187460.900,171497.500,573120.300,0.000
164783.600,167736.900,171212.200,337876.600,147371.100,185221.000,169461.200,567420.200,0.000
164161.800,167099.200,170576.000,333536.100,146819.600,184514.100,168817.900,565383.500,0.000
164782.800,167727.800,171271.500,332965.100,147366.100,185214.900,169457.400,566803.600,0.000
164730.500,167669.000,171217.600,330732.300,147313.500,185147.300,169392.000,566423.600,0.000
162873.700,165770.200,169224.700,323530.100,145671.800,183023.600,167469.400,561098.100,0.000
160580.800,163429.000,166775.900,315042.600,143643.500,180407.700,165094.700,554520.000,0.000
159966.300,162803.000,166149.300,311223.800,143098.700,179709.400,164459.200,552518.400,0.000
160909.300,163768.000,167195.600,311966.200,143934.100,180789.500,165441.600,554900.600,0.000
161093.600,163960.400,167401.700,310824.700,144097.800,181008.100,165635.100,555287.300,0.000
159181.300,162015.500,165354.400,303975.200,142414.300,178836.800,163668.000,549905.500,0.000
156727.100,159517.200,162736.300,295563.700,140247.700,176048.600,161134.700,542937.800,0.000
156100.100,158880.000,162097.900,292144.400,139690.000,175337.200,160485.100,540929.400,0.000
157189.900,159990.800,163300.600,293612.400,140647.900,176575.000,161608.800,543728.300,0.000
157520.300,160324.500,163658.300,293157.400,140932.100,176947.300,161940.700,544505.500,0.000
155664.800,158428.400,161664.800,286789.400,139292.700,174831.000,160023.200,539241.200,0.000
153213.600,155925.600,159043.500,278742.900,137124.800,172040.300,157488.200,532233.800,0.000
152585.700,155284.700,158401.000,275639.900,136565.400,171327.300,156838.700,530182.200,0.000
153687.200,156410.700,159618.400,277395.800,137538.400,172585.400,157983.100,532986.200,0.000
154060.200,156796.500,160029.800,277308.800,137869.300,173020.100,158373.000,533876.100,0.000
152293.300,155001.400,158140.300,271479.300,136317.000,171018.900,156560.500,528867.900,0.000
149926.000,152591.200,155614.600,263978.800,134229.200,168330.800,154119.900,522106.900,0.000
149290.400,151942.900,154963.500,261132.400,133663.900,167606.900,153461.500,520043.200,0.000
150304.000,152974.900,156082.500,262877.000,134555.400,168758.200,154508.200,522605.700,0.000
150650.600,153327.100,156460.700,262937.200,134856.000,169153.900,154862.500,523368.500,0.000
149005.900,151650.100,154698.900,257682.100,133404.800,167284.400,153169.800,518543.500,0.000
146786.000,149387.800,152330.100,250846.500,131444.700,164765.200,150881.700,511979.600,0.000
146135.700,148725.900,151664.000,248217.200,130869.200,164033.500,150216.100,509621.900,0.000
146997.500,149606.200,152622.200,249764.900,131630.300,165020.700,151115.000,511464.000,0.000
147286.000,149901.300,152940.200,249841.700,131880.600,165353.500,151411.300,511825.700,0.000
145798.600,148384.200,151347.300,245187.800,130565.800,163659.700,149876.000,507314.200,0.000
143782.400,146327.500,149194.400,239093.300,128781.600,161366.200,147791.700,501250.500,0.000
143142.000,145675.300,148534.900,236658.900,128212.400,160642.700,147132.000,498909.200,0.000
143831.900,146380.300,149305.900,237880.400,128819.900,161432.900,147850.100,500320.200,0.000
144023.600,146575.000,149520.900,237842.900,128981.500,161653.300,148043.800,500449.800,0.000
142673.400,145196.400,148079.300,233734.300,127785.400,160115.200,146650.300,496342.400,0.000
140858.100,143345.300,146144.600,228371.500,126177.600,158051.500,144774.100,490888.300,0.000
140209.900,142686.400,145475.900,226099.800,125599.700,157319.700,144104.600,488598.700,0.000
140702.900,143192.100,146035.400,226945.900,126033.100,157887.300,144619.500,489522.400,0.000
140798.900,143291.700,146151.500,226778.100,126114.900,158002.000,144718.900,489412.800,0.000
139604.200,142075.700,144882.500,223224.000,125062.900,156645.300,143492.200,485752.600,0.000
137999.200,140441.900,143176.200,218594.100,123645.700,154826.500,141840.200,480917.500,0.000
137346.300,139777.300,142499.400,216482.500,123064.200,154093.200,141170.900,478660.900,0.000
137645.200,140079.900,142842.900,216945.200,123321.900,154438.000,141483.800,479063.100,0.000
137637.500,140067.100,142839.100,216605.800,123304.300,154429.800,141470.500,478644.100,0.000
136579.300,138984.200,141710.500,213529.600,122364.700,153225.000,140380.300,475333.800,0.000
135178.100,137554.600,140219.200,209564.200,121121.400,151634.300,138933.500,471037.700,0.000
134538.900,136904.700,139556.200,207590.500,120551.400,150912.500,138272.500,468783.400,0.000
134661.900,137034.700,139716.600,207675.100,120659.900,151058.800,138403.600,468665.400,0.000
134546.200,136920.200,139607.900,207145.200,120554.700,150934.500,138283.500,467928.400,0.000
133608.300,135963.700,138616.100,204484.200,119724.700,149870.900,137319.500,464932.700,0.000
132394.000,134723.200,137324.500,201108.300,118644.200,148492.700,136063.800,461145.600,0.000
131754.300,134069.100,136653.500,199235.900,118066.800,147768.700,135400.000,458921.700,0.000
131698.500,134010.800,136612.600,198948.000,118007.100,147709.700,135344.500,458368.800,0.000
131476.800,133782.700,136383.000,198216.900,117799.600,147463.500,135112.800,457387.000,0.000
130648.500,132936.500,135506.700,195911.200,117063.700,146525.400,134261.900,454730.500,0.000
129609.000,131876.800,134406.600,193068.800,116142.500,145350.000,133191.400,451474.500,0.000
128986.300,131245.200,133763.200,191316.400,115590.900,144651.300,132553.600,449352.800,0.000
128793.400,131054.200,133587.300,190736.100,115422.500,144442.300,132364.200,448464.000,0.000
128486.100,130747.000,133277.700,189851.300,115149.200,144105.000,132049.400,447273.900,0.000
127746.100,129997.900,132502.900,187856.500,114495.600,143273.100,131292.300,444877.300,0.000
126850.800,129087.500,131554.500,185471.100,113699.300,142262.300,130368.600,442028.300,0.000
126243.800,128467.200,130915.600,183826.200,113153.800,141575.100,129740.500,439951.700,0.000
125941.600,128154.700,130607.800,183008.200,112878.800,141231.000,129430.200,438746.700,0.000
125571.400,127772.600,130221.600,182003.800,112541.000,140811.900,129044.300,437358.300,0.000
124912.600,127100.000,129533.800,180277.500,111955.500,140065.900,128369.300,435165.300,0.000
124141.700,126316.000,128725.800,178280.900,111271.800,139194.200,127574.700,432644.300,0.000
123548.800,125713.700,128111.500,176738.200,110745.300,138524.700,126961.800,430592.600,0.000
123152.800,125312.100,127711.800,175739.600,110394.200,138078.900,126554.800,429111.800,0.000
122727.300,124880.500,127270.100,174643.200,110011.400,137600.300,126110.000,427539.300,0.000
122132.900,124275.600,126647.900,173127.000,109481.400,136927.200,125497.600,425483.800,0.000
121461.900,123589.800,125937.700,171433.600,108880.400,136167.700,124804.000,423206.600,0.000
120889.800,123001.400,125333.200,169973.500,108365.400,135517.600,124212.200,421173.800,0.000
120441.000,122536.800,124865.000,168840.800,107962.700,135003.100,123749.900,419482.500,0.000
119986.300,122065.500,124384.500,167673.900,107550.300,134480.000,123270.900,417758.900,0.000
119440.600,121502.100,123812.800,166317.800,107058.700,133850.800,122700.300,415788.400,0.000
118844.700,120888.600,123185.000,164864.700,106521.000,133168.300,122075.700,413679.400,0.000
118284.200,120315.100,122598.000,163481.000,106018.500,132531.700,121493.100,411644.100,0.000
117775.600,119799.500,122073.300,162253.200,105569.000,131958.700,120972.600,409771.500,0.000
117274.000,119292.600,121550.500,161039.000,105122.300,131397.000,120454.000,407920.800,0.000
116749.300,118759.500,121006.900,159817.300,104654.900,130804.800,119916.400,406024.700,0.000
116197.500,118193.900,120427.800,158560.000,104157.100,130178.400,119344.800,404069.900,0.000
115633.900,117613.500,119833.900,157239.300,103645.900,129538.000,118757.700,402063.600,0.000
115074.200,117036.900,119248.100,155934.500,103141.800,128902.600,118178.800,400083.200,0.000
114539.400,116486.500,118685.600,154678.600,102659.100,128295.300,117623.600,398170.400,0.000
114040.000,115975.600,118170.300,153556.900,102215.700,127729.200,117115.400,396374.100,0.000
113534.900,115462.900,117648.100,152449.300,101768.400,127162.800,116598.200,394588.400,0.000
112980.100,114902.300,117074.300,151187.600,101277.200,126542.700,116028.100,392671.500,0.000
112385.300,114303.900,116462.700,149842.500,100752.400,125880.300,115422.600,390687.300,0.000
111817.900,113735.100,115875.000,148554.300,100247.700,125254.900,114842.900,388788.300,0.000
111323.500,113242.200,115370.000,147481.800,99812.790,124713.300,114347.600,387096.600,0.000
110844.000,112764.400,114874.700,146460.000,99389.230,124187.800,113863.900,385453.800,0.000
110297.800,112215.500,114304.000,145238.000,98902.430,123581.200,113307.700,383623.500,0.000
109694.100,111602.300,113673.600,143887.000,98364.450,122903.800,112692.900,381662.500,0.000
109130.100,111022.500,113078.900,142610.300,97856.000,122267.900,112107.600,379786.800,0.000
108660.400,110535.500,112591.200,141598.200,97433.160,121732.300,111621.000,378154.100,0.000
108210.900,110069.500,112122.400,140660.800,97025.870,121218.300,111150.300,376581.200,0.000
107686.600,109530.900,111574.000,139504.500,96553.930,120622.500,110605.100,374783.000,0.000
107092.400,108926.200,110956.300,138187.200,96026.390,119952.700,109996.800,372798.800,0.000
106528.500,108355.200,110367.100,136935.000,95522.030,119320.700,109412.600,370876.100,0.000
106059.400,107883.100,109886.500,135962.300,95104.310,118794.900,108929.500,369206.400,0.000
105610.800,107435.600,109426.000,135074.400,94705.770,118298.800,108468.100,367597.500,0.000
105080.900,106907.300,108878.300,133961.300,94238.270,117714.800,107929.800,365743.800,0.000
104477.400,106300.900,108254.000,132679.300,93708.520,117045.800,107323.500,363688.400,0.000
103909.600,105724.100,107659.400,131461.500,93202.300,116413.700,106743.900,361694.500,0.000
103446.800,105249.300,107181.500,130528.700,92788.490,115892.600,106272.700,359967.900,0.000
103016.400,104803.600,106732.700,129688.500,92399.330,115403.200,105826.000,358324.400,0.000
102512.400,104280.600,106202.200,128629.300,91942.440,114824.300,105297.900,356456.000,0.000
101934.700,103684.800,105597.300,127403.800,91422.230,114159.500,104695.400,354399.300,0.000
101384.900,103123.100,105019.800,126236.800,90924.840,113534.300,104118.300,352410.800,0.000
100925.500,102658.500,104547.800,125340.300,90514.300,113018.800,103647.500,350687.400,0.000
100484.500,102213.600,104092.600,124528.000,90120.190,112529.200,103197.400,349047.900,0.000
99967.870,101691.000,103556.300,123506.600,89659.490,111953.200,102670.500,347199.200,0.000
99384.560,101100.600,102954.500,122331.400,89144.240,111300.100,102079.800,345179.200,0.000
98833.390,100542.300,102381.900,121204.400,88654.440,110685.400,101515.400,343222.900,0.000
98375.090,100078.000,101914.400,120328.900,88250.530,110173.900,101051.900,341520.600,0.000
97943.510,99640.330,101472.300,119544.500,87868.480,109693.400,100612.200,339916.300,0.000
97444.300,99133.550,100956.400,118576.300,87425.160,109137.100,100102.300,338138.600,0.000
96875.370,98556.570,100367.300,117462.400,86921.260,108501.200,99523.550,336213.700,0.000
96326.560,98000.410,99791.590,116374.100,86429.540,107888.100,98957.390,334347.700,0.000
95862.780,97530.620,99311.950,115506.500,86015.600,107367.900,98485.020,332717.500,0.000
95427.810,97088.450,98858.920,114720.900,85624.040,106879.400,98037.990,331181.200,0.000
94935.970,96586.470,98343.770,113774.000,85180.890,106324.300,97529.580,329491.000,0.000
94386.610,96025.560,97771.910,112708.800,84691.270,105703.400,96967.040,327670.600,0.000
93854.240,95482.640,97213.660,111665.000,84214.070,105105.900,96418.090,325889.400,0.000
93386.930,95006.620,96731.970,110812.600,83798.290,104583.900,95944.610,324300.900,0.000
92940.340,94551.730,96269.730,110038.700,83399.840,104090.200,95490.230,322793.300,0.000
92452.360,94056.100,95762.470,109137.600,82964.610,103549.200,94991.540,321158.300,0.000
91918.810,93514.860,95209.670,108142.400,82490.500,102948.100,94447.730,319408.200,0.000
91399.520,92986.000,94664.880,107151.600,82021.960,102358.500,93908.210,317670.500,0.000
90943.590,92520.420,94192.880,106319.000,81611.950,101839.200,93437.500,316080.900,0.000
90509.690,92078.350,93741.410,105549.500,81220.900,101346.900,92985.340,314543.200,0.000
90036.230,91596.890,93248.130,104664.400,80794.680,100810.300,92490.230,312880.700,0.000
89521.220,91072.680,92715.660,103705.500,80334.940,100227.800,91957.090,311122.300,0.000
89011.240,90553.440,92183.480,102739.700,79876.470,99656.290,91426.110,309369.300,0.000
88540.450,90075.500,91700.430,101895.200,79457.410,99130.330,90945.700,307733.400,0.000
88083.570,89612.370,91229.080,101109.100,79049.390,98620.370,90478.030,306150.500,0.000
87605.980,89126.590,90731.850,100243.900,78620.630,98084.240,89986.550,304483.700,0.000
87105.260,88615.480,90210.760,99332.850,78172.630,97520.120,89473.340,302754.200,0.000
86609.740,88109.400,89688.230,98407.050,77724.400,96963.260,88957.480,301028.700,0.000
86146.340,87636.850,89206.570,97576.490,77308.200,96440.560,88481.770,299400.500,0.000
85695.300,87176.660,88736.140,96792.130,76902.800,95932.700,88018.350,297820.900,0.000
85225.450,86697.180,88246.080,95938.730,76481.670,95405.010,87536.370,296179.800,0.000
84733.240,86196.070,87737.980,95054.250,76045.050,94852.910,87036.050,294499.600,0.000
84242.500,85697.770,87227.510,94153.070,75607.130,94305.230,86530.740,292822.300,0.000
83775.380,85225.580,86749.270,93328.340,75194.910,93784.940,86057.200,291226.600,0.000
83317.910,84763.780,86277.360,92541.730,74789.480,93277.170,85591.560,289679.300,0.000
82848.810,84288.880,85790.320,91702.410,74371.050,92754.540,85112.380,288093.000,0.000
82364.160,83796.840,85289.330,90848.030,73939.520,92211.700,84620.000,286483.900,0.000
81881.170,83305.340,84782.930,89966.980,73503.300,91669.980,84119.530,284865.200,0.000
81417.980,82833.600,84303.170,89140.360,73087.590,91148.080,83643.860,283302.600,0.000
80960.950,82368.270,83827.910,88346.840,72677.770,90636.160,83174.310,281777.200,0.000
80496.570,81896.670,83344.990,87517.370,72262.390,90117.660,82698.700,280219.600,0.000
80023.680,81417.640,82857.340,86691.650,71842.380,89588.150,82217.860,278650.100,0.000
79552.110,80939.180,82363.880,85841.430,71418.720,89061.070,81730.090,277069.600,0.000
79097.270,80476.660,81892.730,85035.020,71013.300,88551.060,81265.360,275532.200,0.000
78647.930,80018.880,81425.100,84256.090,70611.000,88046.720,80803.270,274024.100,0.000
78194.900,79556.350,80953.560,83450.410,70203.400,87536.880,80334.970,272494.900,0.000
77737.960,79089.050,80481.730,82660.210,69794.490,87021.840,79867.210,270967.500,0.000
77275.790,78616.830,79997.870,81837.290,69376.160,86503.200,79389.030,269416.800,0.000
76819.260,78151.880,79525.660,81039.910,68965.730,85988.410,78921.360,267884.800,0.000
76368.020,77692.400,79056.590,80265.210,68558.490,85477.240,78451.910,266374.500,0.000
75917.210,77232.800,78587.230,79467.450,68150.900,84965.090,77979.300,264846.300,0.000
75466.160,76772.910,78121.360,78693.100,67747.520,84454.030,77513.680,263327.300,0.000
75013.130,76310.800,77647.340,77895.450,67340.070,83946.230,77044.500,261791.900,0.000
74560.060,75849.340,77179.410,77117.160,66936.890,83440.590,76585.060,260265.200,0.000
74104.050,75384.840,76704.740,76347.450,66529.280,82933.120,76121.140,258743.400,0.000
73651.700,74922.910,76231.400,75556.430,66122.770,82427.020,75658.630,257203.200,0.000
73207.700,74469.630,75771.030,74801.290,65726.700,81926.190,75205.810,255680.000,0.000
72765.580,74020.020,75308.800,74028.300,65329.130,81427.750,74744.980,254140.800,0.000
72324.840,73573.580,74855.880,73272.170,64936.850,80930.960,74291.090,252605.500,0.000
71879.770,73122.450,74395.900,72520.440,64539.490,80431.480,73830.880,251074.800,0.000
71432.130,72669.110,73931.420,71745.640,64138.790,79929.980,73368.300,249533.400,0.000
70987.540,72220.520,73473.340,71007.130,63744.710,79434.240,72917.220,248020.000,0.000
70543.130,71770.320,73007.500,70245.440,63346.190,78941.840,72461.980,246495.900,0.000
70097.980,71315.160,72544.630,69489.770,62947.310,78444.580,72009.590,244975.500,0.000
69649.940,70855.050,72075.770,68735.420,62541.980,77942.220,71548.700,243460.400,0.000
69206.940,70402.500,71612.630,67966.140,62139.970,77444.730,71090.630,241938.700,0.000
68771.370,69961.380,71164.180,67243.210,61750.190,76954.850,70644.380,240449.000,0.000
68337.440,69523.460,70714.120,66506.450,61361.410,76468.420,70193.590,238952.000,0.000
67908.900,69091.220,70275.760,65785.890,60983.160,75987.110,69755.220,237464.900,0.000
67480.370,68658.550,69833.050,65072.290,60604.090,75510.020,69315.800,235985.800,0.000
67049.310,68221.340,69384.740,64341.690,60219.620,75030.570,68873.660,234494.600,0.000
66619.050,67780.640,68939.780,63653.200,59835.860,74544.370,68436.480,233031.400,0.000
66189.730,67337.890,68488.980,62947.400,59447.480,74056.470,67992.280,231562.700,0.000
65763.360,66900.290,68046.810,62252.150,59064.910,73572.700,67556.110,230103.000,0.000
65336.850,66466.350,67601.990,61558.330,58681.100,73093.560,67117.610,228650.800,0.000
64911.830,66035.440,67158.690,60844.130,58297.880,72617.840,66678.420,227190.700,0.000
64485.040,65601.210,66718.700,60166.070,57915.930,72138.130,66239.760,225757.100,0.000
64053.650,65159.780,66267.730,59464.090,57524.860,71652.410,65789.620,224310.600,0.000
63625.360,64721.500,65824.630,58771.870,57139.760,71167.110,65349.630,222870.000,0.000
63198.180,64285.210,65378.890,58086.420,56755.440,70684.790,64908.370,221441.000,0.000
62776.770,63854.530,64938.010,57389.300,56375.940,70211.670,64472.300,220013.600,0.000
62361.770,63430.250,64508.540,56738.030,56005.470,69747.670,64049.400,218623.300,0.000
61943.840,63003.580,64070.090,56067.630,55628.890,69282.210,63618.210,217223.900,0.000
61524.330,62576.720,63635.780,55403.130,55255.030,68811.710,63190.890,215824.300,0.000
61102.790,62148.180,63197.500,54739.080,54877.780,68337.700,62757.610,214427.700,0.000
60688.410,61726.780,62767.070,54062.520,54504.750,67870.360,62328.860,213030.300,0.000
60283.950,61315.720,62352.140,53432.500,54144.090,67414.640,61915.100,211670.700,0.000
59876.690,60901.230,61927.300,52779.780,53776.900,66958.850,61492.160,210300.300,0.000
59462.990,60479.620,61499.200,52128.850,53404.790,66492.110,61066.600,208926.600,0.000
59043.890,60051.220,61060.980,51475.810,53024.640,66016.880,60631.860,207552.200,0.000
58630.950,59628.000,60627.540,50806.850,52649.560,65549.420,60203.960,206171.400,0.000
58224.300,59213.110,60206.410,50179.930,52286.180,65094.350,59791.700,204822.500,0.000
57814.470,58798.660,59778.570,49529.930,51919.990,64643.360,59373.750,203460.200,0.000
57405.380,58386.350,59357.870,48886.440,51559.250,64190.820,58961.250,202094.400,0.000
56996.290,57971.420,58932.990,48239.830,51194.950,63732.660,58540.990,200722.900,0.000
56591.770,57559.640,58511.640,47570.010,50831.180,63275.340,58119.840,199334.600,0.000
56191.690,57152.950,58099.960,46940.910,50473.210,62821.640,57705.590,197970.000,0.000
55789.550,56742.360,57678.140,46293.110,50107.080,62365.410,57280.490,196586.600,0.000
55388.930,56331.750,57261.020,45656.360,49743.670,61907.600,56862.460,195196.600,0.000
54987.710,55921.060,56841.200,45019.630,49380.200,61453.890,56445.620,193798.800,0.000
54589.340,55515.040,56426.060,44358.980,49022.520,61009.900,56036.660,192377.000,0.000
54190.860,55111.900,56017.210,43734.640,48670.990,60568.260,55635.590,190967.600,0.000
53784.790,54702.250,55594.570,43084.570,48308.730,60120.640,55220.390,189527.900,0.000
53380.540,54293.180,55178.710,42442.680,47950.090,59673.980,54812.360,188077.300,0.000
52980.610,53886.980,54762.800,41799.880,47591.590,59230.910,54402.450,186626.800,0.000
52586.290,53485.770,54349.360,41121.830,47233.620,58789.320,53991.020,185161.800,0.000
52197.170,53088.870,53945.410,40468.700,46882.140,58348.070,53587.360,183717.200,0.000
51808.500,52690.860,53537.610,39789.640,46528.140,57905.660,53177.580,182253.300,0.000
51419.700,52293.050,53137.230,39118.720,46179.690,57465.100,52774.460,180783.300,0.000
51024.020,51890.130,52727.950,38442.300,45825.730,57025.160,52364.460,179305.300,0.000
50627.340,51488.570,52317.170,37731.510,45470.090,56584.610,51954.780,177800.800,0.000
50237.240,51095.710,51917.590,37054.090,45123.950,56149.110,51558.740,176311.000,0.000
49853.040,50708.290,51515.710,36358.830,44778.560,55722.090,51161.890,174801.500,0.000
49476.700,50326.380,51124.640,35678.100,44440.970,55299.210,50775.340,173283.000,0.000
49100.840,49942.150,50729.610,34998.310,44100.450,54873.080,50382.780,171750.600,0.000
48726.410,49557.580,50335.080,34288.590,43760.500,54447.290,49989.620,170187.100,0.000
48352.960,49174.970,49948.690,33610.790,43427.300,54025.630,49605.550,168629.500,0.000
47973.300,48788.650,49552.610,32906.750,43086.280,53602.640,49211.560,167037.000,0.000
47594.250,48404.930,49164.330,32211.930,42749.510,53178.620,48824.300,165429.000,0.000
47217.540,48025.250,48775.890,31515.050,42414.700,52758.760,48436.570,163813.200,0.000
46845.660,47652.680,48390.040,30777.510,42083.630,52347.370,48052.800,162171.000,0.000
46481.870,47288.140,48015.330,30062.040,41761.910,51943.460,47681.570,160539.400,0.000
46121.210,46923.580,47636.100,29318.420,41437.330,51540.950,47305.230,158881.600,0.000
45761.420,46557.010,47262.310,28580.840,41115.710,51135.560,46934.240,157214.000,0.000
45399.230,46185.090,46882.150,27832.530,40789.650,50727.020,46556.100,155531.100,0.000
45040.450,45813.730,46502.910,27041.980,40463.610,50319.230,46176.960,153806.300,0.000
44683.350,45443.070,46129.580,26279.830,40140.390,49908.770,45803.040,152090.200,0.000
44317.820,45066.580,45743.660,25494.640,39806.420,49491.810,45416.130,150386.800,0.000
43949.420,44693.860,45365.330,24726.490,39478.590,49077.760,45038.380,148746.700,0.000
43581.120,44325.280,44986.910,23954.440,39153.960,48671.370,44662.630,147190.800,0.000
43214.110,43957.490,44607.360,23125.050,38828.680,48267.940,44286.240,145689.000,0.000
42847.350,43588.770,44231.360,22304.680,38505.370,47862.900,43914.110,144202.600,0.000
42478.930,43215.100,43845.600,21455.250,38173.890,47453.750,43531.370,142645.200,0.000
42112.790,42839.820,43464.940,20616.550,37843.110,47040.170,43151.320,141054.500,0.000
41744.750,42460.320,43076.280,19748.080,37505.130,46622.100,42759.830,139442.700,0.000
41374.730,42078.500,42683.090,18801.970,37162.320,46201.610,42361.630,137794.100,0.000
41003.000,41696.770,42295.780,17883.990,36823.050,45780.250,41970.960,136183.500,0.000
40627.980,41313.780,41902.910,16980.080,36479.870,45358.630,41577.190,134611.900,0.000
40249.730,40930.410,41515.130,16127.740,36139.140,44934.280,41190.340,133097.300,0.000
39859.320,40537.520,41112.220,15253.140,35786.450,44502.530,40788.620,131607.100,0.000
39461.430,40137.300,40699.790,14282.260,35426.000,44067.090,40378.560,130106.600,0.000
39062.460,39734.610,40292.510,13337.470,35069.570,43630.000,39976.610,128668.400,0.000
38659.690,39327.280,39876.260,12415.230,34706.500,43189.310,39566.500,127284.300,0.000
38257.440,38919.660,39464.650,11548.710,34344.880,42745.660,39160.070,125966.200,0.000
37857.880,38511.860,39047.320,10657.120,33978.000,42300.870,38743.950,124682.300,0.000
37466.930,38110.910,38632.930,9665.869,33613.050,41861.440,38327.960,123389.200,0.000
37081.190,37715.380,38230.550,8709.712,33257.770,41426.720,37925.950,122146.000,0.000
36688.300,37312.120,37818.320,7786.461,32894.300,40986.990,37515.590,120934.500,0.000
36290.240,36904.520,37408.480,6929.925,32531.140,40542.220,37108.940,119767.700,0.000
35889.880,36498.110,36992.840,6052.623,32165.810,40100.210,36695.690,118614.500,0.000
35489.090,36096.140,36576.990,5063.814,31800.920,39663.130,36281.340,117426.400,0.000
35085.080,35694.490,36168.540,4093.533,31442.020,39227.380,35877.990,116263.500,0.000
34677.840,35289.410,35752.710,3135.448,31079.170,38792.190,35470.160,115113.100,0.000
34277.300,34887.320,35346.020,2225.009,30721.970,38353.690,35070.660,113993.300,0.000
33880.380,34483.700,34933.440,1276.658,30358.870,37909.020,34661.230,112870.000,0.000
33488.960,34082.160,34520.440,207.458,29994.350,37469.550,34249.420,111693.600,0.000
33105.100,33686.120,34120.610,-842.295,29640.100,37037.010,33851.500,110531.400,0.000
32719.570,33287.540,33714.350,-1893.308,29280.890,36602.850,33446.340,109371.300,0.000
32332.820,32890.780,33314.220,-2918.110,28925.340,36170.040,33047.300,108234.900,0.000
31942.070,32495.560,32907.300,-4001.403,28566.220,35740.440,32640.190,107098.300,0.000
31546.930,32100.080,32495.210,-5233.521,28202.860,35310.510,32228.030,105914.900,0.000
31152.990,31706.430,32092.110,-6475.943,27846.780,34881.050,31828.470,104755.300,0.000
30763.930,31316.210,31688.660,-7742.442,27493.220,34456.700,31429.110,103614.600,0.000
30379.320,30929.410,31295.330,-8989.080,27147.680,34035.950,31039.530,102510.800,0.000
29994.370,30540.640,30895.260,-10283.210,26797.310,33615.800,30641.570,101416.000,0.000
29621.710,30161.130,30502.430,-11688.400,26452.040,33203.140,30246.900,100298.400,0.000
29265.240,29793.970,30131.520,-13051.750,26123.340,32798.200,29870.970,99230.400,0.000
28916.030,29431.720,29761.940,-14405.760,25796.850,32399.140,29495.260,98186.610,0.000
28574.170,29078.710,29405.770,-15710.650,25481.910,32009.350,29136.690,97183.720,0.000
28228.140,28725.060,29041.920,-17035.120,25163.500,31621.700,28772.810,96198.660,0.000
27877.540,28369.830,28673.510,-18452.270,24842.130,31234.480,28405.010,95191.770,0.000
27530.470,28020.990,28319.340,-19806.000,24533.510,30852.380,28053.710,94232.140,0.000
27188.750,27678.680,27967.670,-21128.690,24229.750,30476.600,27704.450,93294.100,0.000
26856.470,27345.420,27632.160,-22367.710,23938.350,30107.180,27370.560,92398.250,0.000
26524.710,27011.630,27290.460,-23576.600,23642.490,29738.060,27029.710,91522.490,0.000
26195.240,26677.720,26944.980,-24829.270,23343.180,29368.970,26685.770,90618.950,0.000
25873.300,26347.130,26611.180,-25984.240,23053.020,29001.630,26355.820,89749.490,0.000
25557.050,26019.190,26275.890,-27101.680,22763.530,28639.810,26024.670,88884.140,0.000
25251.850,25703.320,25957.970,-28137.840,22489.320,28292.120,25714.600,88036.660,0.000
24948.020,25390.010,25635.850,-29150.560,22214.210,27950.730,25403.190,87200.160,0.000
24641.940,25074.200,25309.140,-30222.080,21933.530,27605.460,25083.380,86322.380,0.000
24337.270,24761.390,24995.290,-31210.780,21661.140,27257.040,24771.110,85427.550,0.000
24029.870,24449.850,24677.410,-32188.830,21387.050,26909.150,24453.340,84485.630,0.000
23722.930,24142.310,24368.300,-33110.860,21120.420,26566.100,24149.110,83503.270,0.000
23417.270,23836.030,24054.270,-34008.150,20852.930,26228.570,23843.400,82511.550,0.000
23118.550,23534.920,23742.030,-34950.750,20587.920,25897.380,23539.490,81534.690,0.000
22824.330,23237.100,23439.810,-35817.150,20329.570,25567.020,23245.010,80586.300,0.000
22527.650,22935.020,23126.070,-36709.930,20061.550,25233.710,22936.480,79609.120,0.000
22237.460,22637.290,22822.240,-37598.190,19800.840,24903.870,22636.590,78607.530,0.000
21952.950,22344.180,22519.170,-38523.610,19542.510,24578.480,22333.680,77571.960,0.000
21672.570,22055.520,22219.880,-39547.810,19285.690,24256.320,22030.060,76492.010,0.000
21391.840,21768.010,21928.880,-40524.030,19034.340,23934.840,21736.000,75428.800,0.000
21104.880,21475.660,21623.990,-41542.530,18773.910,23612.300,21430.870,74352.440,0.000
20820.400,21187.090,21328.320,-42529.210,18520.600,23292.910,21137.530,73245.980,0.000
20536.490,20899.370,21030.960,-43466.280,18267.400,22974.860,20841.710,72132.570,0.000
20250.790,20608.090,20729.730,-44421.160,18010.510,22652.610,20540.920,71055.130,0.000
19962.160,20313.690,20431.430,-45305.340,17754.320,22324.700,20244.560,70037.630,0.000
19670.640,20018.920,20123.240,-46252.730,17490.090,21998.420,19937.030,68985.450,0.000
19386.930,19733.940,19831.920,-47198.240,17238.460,21682.120,19646.000,67903.960,0.000
19106.900,19451.960,19540.820,-48119.050,16989.570,21370.210,19355.210,66843.780,0.000
18827.000,19168.090,19244.650,-49065.110,16736.170,21056.200,19059.910,65810.300,0.000
18546.350,18883.060,18953.130,-49935.350,16484.230,20739.320,18770.530,64812.310,0.000
18260.430,18593.040,18648.640,-50870.090,16222.110,20419.100,18466.230,63807.390,0.000
17974.430,18302.810,18351.130,-51784.750,15964.910,20097.480,18169.900,62816.630,0.000
17688.360,18013.150,18052.190,-52621.890,15708.530,19777.770,17873.360,61838.960,0.000
17407.410,17729.710,17758.300,-53432.740,15456.660,19464.710,17581.670,60840.940,0.000
17130.860,17450.200,17474.940,-54143.710,15212.440,19153.700,17299.840,59850.470,0.000
16854.010,17167.270,17180.110,-54914.180,14958.650,18839.930,17001.430,58856.810,0.000
16584.430,16889.420,16897.670,-55656.300,14712.360,18528.990,16712.890,57883.510,0.000
16313.730,16610.810,16612.210,-56305.420,14464.220,18219.180,16421.620,56922.320,0.000
16038.570,16329.340,16322.090,-56910.730,14212.740,17908.710,16126.920,55951.220,0.000
15761.230,16047.440,16036.420,-57399.860,13965.570,17597.770,15838.990,54998.950,0.000
15483.150,15765.010,15739.640,-57933.660,13711.280,17288.490,15539.750,54008.870,0.000
15214.020,15490.310,15458.970,-58410.290,13468.750,16984.040,15257.100,52997.580,0.000
14944.930,15215.140,15178.260,-58753.870,13226.660,16678.290,14974.120,52011.520,0.000
14671.840,14937.250,14893.060,-59023.750,12980.120,16370.340,14688.290,51067.180,0.000
14400.370,14662.450,14615.720,-59141.600,12740.090,16066.330,14413.440,50171.680,0.000
14132.960,14390.400,14332.510,-59244.600,12497.720,15766.880,14131.110,49223.290,0.000
13870.570,14120.800,14060.950,-59234.930,12263.540,15464.020,13861.230,48248.570,0.000
13601.370,13844.310,13781.180,-59059.910,12023.100,15153.630,13584.690,47309.550,0.000
13329.150,13566.330,13497.630,-58783.210,11779.160,14844.990,13306.050,46383.180,0.000
13060.160,13293.280,13224.400,-58333.410,11544.050,14541.880,13041.400,45483.820,0.000
12789.700,13019.720,12941.000,-57879.400,11303.520,14241.450,12767.700,44580.340,0.000
12521.780,12748.420,12668.270,-57332.250,11071.100,13943.380,12506.810,43680.950,0.000
12253.930,12476.020,12394.340,-56619.820,10838.430,13644.310,12243.230,42796.130,0.000
11990.410,12207.360,12123.460,-55796.480,10607.380,13346.410,11979.580,41932.870,0.000
11730.760,11943.130,11863.660,-54792.590,10384.930,13050.560,11727.620,41107.960,0.000
11468.290,11675.140,11590.590,-53782.300,10153.400,12753.730,11460.360,40263.400,0.000
11213.320,11412.990,11330.710,-52676.560,9931.707,12461.340,11205.330,39452.260,0.000
10960.780,11154.050,11072.310,-51406.340,9712.293,12173.130,10952.130,38681.090,0.000
10700.950,10889.800,10807.250,-50036.490,9485.765,11880.790,10693.550,37877.470,0.000
10435.450,10620.980,10544.740,-48491.350,9260.133,11582.750,10439.430,37074.570,0.000
10169.260,10351.220,10271.860,-46938.840,9028.279,11285.690,10173.330,36304.770,0.000
9907.698,10084.540,10011.090,-45306.390,8804.403,10991.090,9919.584,35657.220,0.000
9645.193,9814.418,9748.082,-43542.090,8578.742,10694.560,9663.063,35062.220,0.000
9387.698,9548.079,9487.095,-41717.810,8355.454,10401.650,9408.476,34396.280,0.000
9136.526,9289.101,9237.451,-39776.420,8141.833,10114.230,9167.381,33737.820,0.000
8882.047,9027.391,8973.437,-37913.950,7916.393,9824.609,8909.472,33100.990,0.000
8626.768,8765.385,8715.237,-36076.440,7692.517,9530.651,8655.965,32527.150,0.000
8368.500,8501.798,8451.954,-34230.750,7465.711,9235.461,8396.073,31956.950,0.000
8112.432,8240.643,8188.562,-32451.550,7239.638,8945.477,8135.896,31289.050,0.000
7860.515,7982.813,7936.032,-30645.740,7022.973,8659.800,7889.781,30608.370,0.000
7606.489,7722.723,7671.517,-28966.030,6799.042,8375.146,7632.650,29918.420,0.000
7355.566,7466.983,7418.139,-27329.680,6583.159,8094.534,7388.969,29263.870,0.000
7103.831,7210.656,7163.023,-25687.680,6365.951,7814.426,7141.828,28614.820,0.000
6849.704,6951.130,6903.022,-24108.670,6143.483,7530.524,6886.054,27889.850,0.000
6595.262,6692.911,6648.784,-22497.040,5925.758,7245.702,6637.121,27164.770,0.000
6341.840,6437.681,6385.227,-21007.140,5702.503,6965.103,6378.644,26422.740,0.000
6092.916,6185.890,6133.343,-19559.540,5485.726,6686.353,6131.896,25705.160,0.000
5841.937,5929.238,5877.124,-18108.830,5264.171,6404.212,5877.381,25000.730,0.000
5598.450,5678.422,5624.905,-16721.610,5045.931,6127.809,5623.562,24249.360,0.000
5362.382,5435.021,5386.381,-15295.380,4840.339,5857.342,5386.035,23522.290,0.000
5116.404,5183.304,5129.634,-13981.260,4622.427,5582.069,5132.058,22776.400,0.000
4865.644,4929.900,4878.066,-12694.780,4406.977,5303.292,4885.642,22048.880,0.000
4614.870,4676.369,4625.261,-11393.390,4189.518,5022.568,4635.232,21343.760,0.000
4369.975,4425.859,4375.017,-10155.610,3972.391,4744.150,4383.458,20607.450,0.000
4132.848,4183.044,4139.043,-8877.680,3767.541,4472.079,4147.652,19914.950,0.000
3897.087,3943.602,3895.089,-7705.228,3559.929,4205.667,3905.257,19225.450,0.000
3664.216,3708.629,3661.971,-6565.914,3361.367,3944.196,3679.051,18570.110,0.000
3427.115,3467.728,3420.904,-5435.692,3156.878,3679.474,3447.805,17947.610,0.000
3186.286,3220.183,3171.635,-4394.146,2944.888,3409.444,3209.906,17306.760,0.000
2941.525,2969.465,2926.468,-3326.424,2737.342,3136.077,2980.875,16718.350,0.000
2690.029,2713.733,2665.852,-2374.173,2519.476,2858.777,2735.094,16125.600,0.000
2445.050,2464.301,2418.261,-1461.882,2309.235,2582.945,2499.281,15553.300,0.000
2205.065,2218.528,2172.183,-557.980,2099.085,2310.280,2259.672,15005.100,0.000
1969.518,1976.880,1927.485,265.484,1889.507,2043.162,2018.978,14436.670,0.000
1740.189,1742.139,1696.263,1130.513,1691.728,1782.044,1794.550,13919.530,0.000
1511.758,1508.386,1456.334,1898.354,1489.999,1525.493,1561.845,13388.470,0.000
1284.137,1275.472,1225.097,2644.734,1295.260,1268.281,1343.152,12869.520,0.000
1046.398,1033.117,982.076,3401.727,1091.011,998.386,1115.240,12379.680,0.000
804.589,788.901,734.309,4094.840,881.546,726.759,881.531,11887.510,0.000
569.515,552.158,502.769,4839.670,684.830,463.539,665.693,11470.300,0.000
336.598,315.582,263.467,5490.734,483.464,202.730,441.555,11060.540,0.000
108.437,83.657,36.562,6127.648,292.040,-53.992,232.172,10692.070,0.000
-121.587,-149.723,-193.616,6788.178,98.964,-310.088,18.690,10392.030,0.000
-354.199,-387.175,-430.529,7381.557,-100.939,-569.815,-201.100,10116.440,0.000
-587.152,-625.638,-663.029,7997.210,-297.333,-833.118,-410.642,9926.589,0.000
-822.950,-865.596,-909.669,8472.221,-502.756,-1098.095,-634.350,9752.377,0.000
-1054.235,-1098.548,-1143.952,8869.236,-698.677,-1358.083,-844.530,9622.449,0.000
-1284.469,-1329.664,-1378.587,9209.126,-894.747,-1612.867,-1057.247,9551.063,0.000
-1510.132,-1556.671,-1611.462,9400.434,-1090.778,-1861.787,-1272.256,9493.448,0.000
-1732.350,-1780.376,-1834.902,9537.701,-1279.388,-2110.189,-1475.891,9508.183,0.000
-1962.505,-2013.322,-2078.591,9462.176,-1483.493,-2366.473,-1698.882,9504.527,0.000
-2190.880,-2246.053,-2314.124,9264.175,-1683.359,-2622.912,-1912.513,9510.658,0.000
-2416.082,-2478.318,-2548.641,9009.501,-1883.673,-2877.065,-2132.267,9545.611,0.000
-2640.545,-2711.398,-2785.576,8638.924,-2088.384,-3132.615,-2361.671,9557.515,0.000
-2864.636,-2941.576,-3015.806,8269.063,-2287.910,-3388.303,-2582.688,9627.025,0.000
-3090.542,-3170.752,-3258.912,7752.234,-2495.827,-3641.069,-2818.763,9694.682,0.000
-3313.432,-3395.023,-3490.293,7169.550,-2695.900,-3889.693,-3044.170,9786.036,0.000
-3538.318,-3621.057,-3723.404,6585.031,-2898.049,-4138.437,-3274.982,9888.972,0.000
-3759.764,-3845.025,-3955.599,5940.051,-3099.627,-4384.091,-3506.401,9923.765,0.000
-3974.865,-4063.657,-4175.936,5335.918,-3290.234,-4626.133,-3721.339,9953.290,0.000
-4192.028,-4284.345,-4410.166,4616.729,-3490.989,-4868.927,-3951.083,9777.751,0.000
-4406.788,-4501.646,-4633.683,3868.254,-3684.985,-5109.877,-4167.963,9226.558,0.000
-4621.561,-4719.913,-4857.011,3159.970,-3878.609,-5350.874,-4386.333,8531.754,0.000
-4836.744,-4939.375,-5082.609,2425.813,-4075.017,-5592.897,-4609.189,7938.902,0.000
-5052.528,-5157.591,-5302.283,1755.178,-4265.888,-5835.313,-4820.771,7344.153,0.000
-5271.709,-5378.292,-5536.519,990.025,-4465.417,-6076.944,-5045.105,6481.163,0.000
-5487.592,-5595.729,-5758.792,219.799,-4655.147,-6314.807,-5253.241,5402.055,0.000
-5702.767,-5813.015,-5980.429,-475.682,-4843.945,-6552.672,-5461.625,4442.227,0.000
-5915.140,-6027.852,-6201.584,-1157.821,-5033.142,-6789.773,-5670.745,3756.513,0.000
-6121.412,-6236.733,-6409.882,-1744.315,-5210.742,-7021.741,-5861.767,3137.386,0.000
-6327.779,-6447.417,-6629.412,-2409.173,-5395.758,-7252.104,-6065.331,2322.359,0.000
-6539.212,-6664.315,-6846.332,-3090.385,-5582.757,-7491.216,-6266.974,1343.380,0.000
-6758.802,-6889.257,-7072.680,-3718.493,-5779.961,-7739.455,-6482.424,439.242,0.000
-6973.261,-7107.077,-7297.235,-4347.673,-5974.501,-7979.577,-6696.275,-281.981,0.000
-7182.216,-7316.953,-7510.360,-4907.949,-6156.445,-8210.615,-6891.740,-958.140,0.000
-7394.584,-7530.517,-7738.288,-5582.570,-6349.223,-8440.442,-7105.472,-1757.533,0.000
-7601.169,-7739.527,-7952.185,-6293.856,-6533.484,-8669.526,-7307.521,-2652.280,0.000
-7804.917,-7947.148,-8163.074,-6961.232,-6715.636,-8902.449,-7510.620,-3499.904,0.000
-8006.971,-8153.383,-8374.200,-7645.554,-6897.377,-9132.405,-7716.526,-4246.759,0.000
-8210.548,-8360.841,-8580.820,-8277.751,-7075.096,-9360.492,-7915.551,-4971.021,0.000
-8423.231,-8577.707,-8809.332,-9027.827,-7271.769,-9595.971,-8140.916,-5759.014,0.000
-8634.589,-8791.620,-9029.018,-9808.701,-7463.659,-9831.067,-8356.248,-6589.614,0.000
-8842.208,-9000.450,-9243.732,-10532.870,-7650.110,-10059.130,-8567.799,-7395.024,0.000
-9043.923,-9203.503,-9454.354,-11262.360,-7832.544,-10280.490,-8777.413,-8158.576,0.000
-9243.248,-9405.299,-9657.938,-11935.850,-8009.699,-10504.260,-8977.896,-8913.417,0.000
-9447.316,-9613.813,-9879.608,-12724.210,-8202.690,-10734.640,-9201.656,-9687.278,0.000
-9644.777,-9815.478,-10086.230,-13541.180,-8385.281,-10959.230,-9410.530,-10465.690,0.000
-9839.548,-10013.990,-10287.320,-14294.250,-8562.306,-11178.080,-9616.126,-11236.990,0.000
-10037.940,-10214.990,-10492.070,-15042.180,-8741.988,-11398.010,-9826.993,-12012.190,0.000
-10237.870,-10414.620,-10691.450,-15723.560,-8915.788,-11618.420,-10028.610,-12789.250,0.000
-10436.630,-10613.230,-10902.190,-16503.470,-9096.969,-11835.970,-10245.060,-13549.730,0.000
-10628.050,-10807.240,-11100.100,-17308.560,-9269.367,-12050.170,-10447.020,-14285.550,0.000
-10821.030,-11005.000,-11301.360,-18059.480,-9445.838,-12267.820,-10653.830,-15028.070,0.000
-11013.550,-11201.910,-11505.720,-18807.680,-9626.426,-12486.220,-10868.070,-15805.730,0.000
-11203.920,-11395.990,-11702.170,-19485.110,-9800.821,-12706.160,-11074.830,-16592.930,0.000
-11400.950,-11599.510,-11915.990,-20252.480,-9989.454,-12933.880,-11303.300,-17344.290,0.000
-11597.110,-11802.710,-12119.230,-21031.330,-10169.630,-13159.910,-11514.570,-18053.650,0.000
-11789.200,-11998.760,-12315.710,-21735.950,-10340.340,-13375.540,-11713.730,-18774.750,0.000
-11976.090,-12187.650,-12508.920,-22430.400,-10507.110,-13583.280,-11909.890,-19548.130,0.000
-12163.650,-12377.800,-12698.890,-23066.240,-10672.930,-13794.740,-12103.340,-20335.610,0.000
-12355.660,-12573.890,-12907.540,-23800.330,-10854.810,-14010.240,-12322.630,-21073.360,0.000
-12539.390,-12761.420,-13102.010,-24557.210,-11024.880,-14217.510,-12524.450,-21756.570,0.000
-12721.080,-12947.930,-13294.440,-25262.390,-11191.570,-14422.650,-12721.940,-22456.800,0.000
-12906.470,-13138.960,-13491.660,-25972.360,-11363.750,-14631.780,-12925.680,-23222.840,0.000
-13093.820,-13330.130,-13682.480,-26615.140,-11531.730,-14842.200,-13122.330,-24006.050,0.000
-13284.750,-13524.470,-13887.040,-27333.680,-11710.640,-15054.240,-13339.340,-24732.680,0.000
-13471.810,-13714.050,-14080.060,-28059.310,-11880.200,-15264.110,-13540.870,-25400.870,0.000
-13656.270,-13899.680,-14269.970,-28716.810,-12043.140,-15469.530,-13732.380,-26087.570,0.000
-13836.920,-14081.590,-14458.670,-29359.210,-12203.270,-15669.650,-13919.270,-26840.950,0.000
-14016.890,-14264.520,-14641.530,-29922.490,-12360.960,-15872.010,-14100.060,-27610.100,0.000
-14202.490,-14455.280,-14842.320,-30549.680,-12536.310,-16081.290,-14307.620,-28321.580,0.000
-14383.290,-14640.000,-15030.410,-31173.200,-12702.890,-16287.390,-14499.610,-28975.170,0.000
-14563.790,-14823.720,-15215.860,-31730.380,-12865.180,-16491.560,-14683.570,-29648.090,0.000
-14749.880,-15013.670,-15407.900,-32289.040,-13031.860,-16699.710,-14871.760,-30387.440,0.000
-14936.330,-15202.350,-15593.930,-32781.170,-13192.140,-16906.740,-15053.010,-31141.400,0.000
-15116.980,-15384.040,-15786.010,-33335.280,-13355.320,-17104.060,-15249.170,-31836.910,0.000
-15289.310,-15556.590,-15963.040,-33899.360,-13506.910,-17294.880,-15429.500,-32476.140,0.000
-15467.050,-15734.820,-16145.090,-34426.870,-13662.820,-17492.880,-15611.580,-33135.600,0.000
-15648.050,-15916.840,-16333.100,-34977.180,-13825.240,-17694.210,-15798.910,-33858.400,0.000
-15826.010,-16096.490,-16512.290,-35474.940,-13982.380,-17892.850,-15977.110,-34595.150,0.000
-16005.990,-16280.790,-16704.990,-36042.240,-14151.830,-18091.990,-16176.560,-35279.960,0.000
-16182.750,-16461.690,-16887.450,-36621.240,-14313.050,-18288.600,-16363.720,-35913.670,0.000
-16362.920,-16644.950,-17073.970,-37169.130,-14474.740,-18488.180,-16550.920,-36564.750,0.000
-16546.660,-16831.780,-17268.460,-37752.160,-14643.680,-18692.480,-16746.620,-37273.880,0.000
-16722.410,-17010.160,-17448.500,-38281.480,-14802.900,-18891.470,-16932.630,-37995.730,0.000
-16890.090,-17180.430,-17630.210,-38859.030,-14963.530,-19078.950,-17132.000,-38669.790,0.000
-17051.030,-17343.360,-17799.090,-39438.520,-15113.040,-19258.520,-17314.890,-39297.590,0.000
-17215.210,-17511.720,-17972.160,-39991.550,-15263.620,-19446.410,-17494.340,-39940.030,0.000
-17383.220,-17686.080,-18151.360,-40584.380,-15418.670,-19641.010,-17676.240,-40631.840,0.000
-17551.050,-17859.010,-18322.460,-41127.540,-15567.660,-19830.750,-17849.110,-41334.030,0.000
-17720.910,-18033.640,-18505.180,-41716.290,-15728.600,-20018.620,-18044.460,-41996.630,0.000
-17888.280,-18204.210,-18679.840,-42310.360,-15886.350,-20206.740,-18233.900,-42621.340,0.000
-18055.580,-18373.720,-18857.340,-42894.070,-16044.870,-20394.450,-18423.220,-43257.200,0.000
-18216.950,-18538.870,-19033.850,-43533.290,-16200.840,-20575.940,-18610.260,-43932.360,0.000
-18371.400,-18698.270,-19196.100,-44123.410,-16344.550,-20752.380,-18782.640,-44616.930,0.000
-18528.950,-18861.380,-19369.120,-44736.680,-16497.090,-20931.270,-18971.740,-45270.460,0.000
-18687.240,-19023.010,-19534.150,-45325.470,-16642.720,-21109.950,-19146.520,-45891.380,0.000
-18847.970,-19185.330,-19700.460,-45873.150,-16785.720,-21287.140,-19313.330,-46518.620,0.000
-19006.510,-19346.520,-19866.640,-46440.010,-16928.770,-21462.960,-19477.680,-47175.600,0.000
-19160.830,-19505.070,-20021.570,-46919.020,-17064.750,-21639.580,-19631.500,-47837.500,0.000
-19318.430,-19668.410,-20189.410,-47386.100,-17211.500,-21818.530,-19803.390,-48472.450,0.000
-19477.390,-19831.530,-20351.740,-47813.050,-17353.250,-21995.780,-19963.150,-49080.550,0.000
-19638.640,-19994.670,-20516.520,-48206.390,-17493.950,-22170.820,-20119.390,-49694.430,0.000
-19795.820,-20153.280,-20680.180,-48638.980,-17633.410,-22341.780,-20276.410,-50333.500,0.000
-19947.900,-20307.310,-20831.410,-49003.660,-17764.780,-22512.480,-20425.830,-50977.720,0.000
-20102.600,-20465.920,-20994.120,-49365.020,-17907.470,-22688.900,-20597.920,-51601.450,0.000
-20253.330,-20620.930,-21147.220,-49692.620,-18042.960,-22864.010,-20759.460,-52202.300,0.000
-20400.600,-20771.280,-21298.740,-50000.730,-18173.540,-23032.800,-20913.260,-52805.190,0.000
-20547.610,-20919.630,-21452.840,-50364.020,-18305.220,-23198.170,-21064.880,-53426.380,0.000
-20698.720,-21070.430,-21602.740,-50666.960,-18435.030,-23366.860,-21208.880,-54050.340,0.000
-20855.590,-21227.450,-21767.110,-50965.760,-18577.630,-23538.880,-21373.830,-54658.260,0.000
-21006.660,-21379.190,-21920.540,-51236.570,-18711.810,-23706.340,-21527.990,-55248.280,0.000
-21155.660,-21530.060,-22075.080,-51510.710,-18844.810,-23871.880,-21682.480,-55839.530,0.000
-21307.940,-21685.220,-22237.700,-51878.230,-18984.980,-24039.810,-21845.920,-56445.260,0.000
-21463.250,-21844.430,-22397.080,-52222.000,-19123.960,-24212.240,-22003.980,-57053.080,0.000
-21618.980,-22006.230,-22566.020,-52576.520,-19270.550,-24385.800,-22176.270,-57648.780,0.000
-21766.470,-22158.100,-22719.480,-52904.090,-19404.600,-24551.360,-22332.860,-58232.080,0.000
-21913.350,-22307.020,-22873.480,-53232.550,-19537.680,-24713.710,-22489.980,-58817.990,0.000
-22058.720,-22455.480,-23031.000,-53642.890,-19674.810,-24875.960,-22653.450,-59413.830,0.000
-22198.700,-22599.580,-23175.530,-54010.090,-19803.490,-25037.480,-22804.850,-60007.880,0.000
-22341.730,-22745.710,-23328.880,-54372.680,-19940.350,-25201.290,-22969.530,-60591.210,0.000
-22487.150,-22890.770,-23476.970,-54706.690,-20073.100,-25364.810,-23124.090,-61164.800,0.000
-22635.730,-23037.960,-23630.390,-55042.370,-20206.870,-25526.660,-23278.330,-61738.890,0.000
-22778.720,-23181.560,-23782.710,-55449.840,-20338.140,-25682.680,-23431.020,-62317.740,0.000
-22912.320,-23318.520,-23918.470,-55798.260,-20456.290,-25834.810,-23567.180,-62894.270,0.000
-23048.180,-23461.710,-24065.460,-56127.140,-20584.210,-25992.620,-23718.080,-63465.580,0.000
-23186.190,-23607.790,-24209.820,-56413.860,-20711.530,-26155.220,-23862.880,-64030.860,0.000
-23328.840,-23756.170,-24360.620,-56691.910,-20843.790,-26319.520,-24013.500,-64595.140,0.000
-23473.290,-23902.910,-24514.590,-57037.420,-20979.150,-26480.110,-24168.490,-65161.170,0.000
-23612.190,-24040.720,-24651.790,-57316.450,-21098.880,-26631.900,-24302.070,-65721.660,0.000
-23745.980,-24172.930,-24789.290,-57563.090,-21215.260,-26777.640,-24437.600,-66275.840,0.000
-23875.690,-24301.410,-24916.250,-57764.640,-21323.780,-26923.410,-24563.750,-66826.220,0.000
-24012.440,-24438.380,-25054.000,-57969.450,-21442.250,-27076.450,-24702.470,-67376.320,0.000
-24153.470,-24581.160,-25202.680,-58260.280,-21570.610,-27231.310,-24850.590,-67926.650,0.000
-24290.440,-24721.240,-25340.990,-58505.770,-21690.040,-27382.700,-24983.170,-68473.270,0.000
-24424.550,-24861.030,-25484.550,-58736.220,-21812.640,-27532.820,-25124.010,-69017.520,0.000
-24551.710,-24993.860,-25616.580,-58927.810,-21926.090,-27679.070,-25252.130,-69558.230,0.000
-24681.050,-25128.450,-25754.490,-59122.860,-22043.920,-27825.480,-25386.500,-70096.020,0.000
-24817.030,-25268.880,-25902.130,-59409.260,-22171.840,-27975.720,-25533.550,-70633.400,0.000
-24956.370,-25410.340,-26042.690,-59660.220,-22295.440,-28130.650,-25672.820,-71169.190,0.000
-25097.450,-25553.620,-26190.960,-59902.690,-22425.240,-28288.290,-25824.070,-71704.410,0.000
-25229.700,-25687.870,-26324.160,-60106.690,-22543.610,-28438.510,-25960.410,-72235.910,0.000
-25357.330,-25817.110,-26455.880,-60309.040,-22658.990,-28582.900,-26096.760,-72762.870,0.000
-25484.130,-25944.960,-26591.540,-60593.340,-22776.620,-28725.330,-26238.130,-73287.120,0.000
-25609.130,-26069.640,-26716.730,-60833.080,-22884.910,-28864.380,-26362.820,-73807.320,0.000
-25738.040,-26199.670,-26853.110,-61064.350,-23001.760,-29004.470,-26496.590,-74327.020,0.000
-25866.770,-26331.650,-26985.070,-61262.710,-23116.720,-29148.420,-26623.420,-74846.710,0.000
-25995.590,-26465.570,-27121.760,-61459.610,-23235.940,-29297.480,-26759.570,-75364.630,0.000
-26123.430,-26597.980,-27262.080,-61736.930,-23359.670,-29446.210,-26904.690,-75879.990,0.000
-26252.170,-26729.100,-27393.720,-61972.060,-23476.550,-29592.470,-27035.540,-76392.100,0.000
-26386.350,-26867.090,-27536.390,-62200.290,-23601.180,-29740.460,-27175.710,-76903.300,0.000
-26515.080,-27000.690,-27666.370,-62389.590,-23714.630,-29884.080,-27301.430,-77410.720,0.000
-26638.560,-27128.320,-27793.410,-62565.180,-23821.890,-30021.140,-27424.560,-77913.760,0.000
-26760.080,-27251.820,-27922.280,-62810.160,-23929.780,-30154.140,-27549.540,-78414.130,0.000
-26882.490,-27373.190,-28042.630,-63009.000,-24031.330,-30287.370,-27661.060,-78911.320,0.000
-27009.970,-27500.110,-28175.400,-63205.080,-24143.320,-30425.430,-27788.100,-79409.420,0.000
-27132.940,-27624.230,-28298.970,-63367.070,-24250.930,-30564.760,-27910.340,-79906.070,0.000
-27252.120,-27746.440,-28422.790,-63512.570,-24359.500,-30703.870,-28038.490,-80397.660,0.000
-27369.020,-27866.420,-28549.110,-63722.180,-24470.130,-30839.610,-28170.810,-80884.630,0.000
-27483.310,-27981.340,-28663.460,-63884.880,-24569.780,-30970.090,-28284.360,-81367.540,0.000
-27601.110,-28099.340,-28787.420,-64048.600,-24676.090,-31100.260,-28406.460,-81851.150,0.000
-27721.190,-28219.610,-28907.130,-64186.780,-24781.180,-31233.340,-28523.280,-82335.170,0.000
-27845.070,-28344.170,-29033.610,-64315.790,-24891.090,-31370.010,-28647.750,-82817.480,0.000
-27966.560,-28466.470,-29162.380,-64507.430,-25001.000,-31503.180,-28774.660,-83295.660,0.000
-28083.470,-28581.860,-29276.290,-64648.140,-25096.960,-31630.410,-28882.260,-83768.090,0.000
-28204.100,-28700.130,-29398.910,-64793.160,-25199.630,-31757.840,-29000.260,-84240.260,0.000
-28324.690,-28819.330,-29515.980,-64916.190,-25300.540,-31886.680,-29111.880,-84712.460,0.000
-28444.980,-28942.010,-29638.350,-65027.700,-25406.380,-32019.400,-29230.640,-85182.820,0.000
-28560.910,-29064.600,-29763.670,-65200.900,-25516.210,-32154.240,-29358.080,-85649.440,0.000
-28672.120,-29182.720,-29876.860,-65326.110,-25616.520,-32288.440,-29473.540,-86111.030,0.000
-28785.610,-29301.500,-29999.780,-65457.390,-25722.130,-32421.480,-29598.380,-86572.330,0.000
-28896.380,-29414.190,-30113.090,-65562.510,-25818.660,-32547.900,-29708.490,-87031.550,0.000
-29011.050,-29527.930,-30230.500,-65651.980,-25916.620,-32672.150,-29820.610,-87487.450,0.000
-29132.670,-29647.570,-30357.340,-65807.190,-26023.280,-32800.400,-29942.750,-87941.720,0.000
-29254.680,-29767.670,-30475.810,-65920.450,-26125.130,-32931.480,-30054.520,-88392.890,0.000
-29376.020,-29889.460,-30602.560,-66047.480,-26234.430,-33063.120,-30177.820,-88844.490,0.000
-29491.450,-30006.890,-30719.660,-66160.570,-26337.100,-33191.440,-30290.590,-89297.060,0.000
-29604.230,-30122.800,-30837.630,-66259.730,-26438.890,-33317.890,-30405.590,-89748.050,0.000
-29711.980,-30235.540,-30955.090,-66410.520,-26540.380,-33441.820,-30524.980,-90194.490,0.000
-29813.660,-30343.400,-31057.660,-66506.620,-26631.010,-33563.810,-30629.830,-90635.270,0.000
-29919.930,-30455.330,-31171.770,-66614.740,-26731.030,-33687.950,-30746.630,-91075.270,0.000
-30030.990,-30567.510,-31283.470,-66710.880,-26829.670,-33811.920,-30854.710,-91513.540,0.000
-30148.240,-30683.050,-31402.120,-66792.730,-26931.970,-33937.280,-30967.690,-91948.890,0.000
-30265.960,-30799.910,-31525.620,-66928.380,-27037.160,-34063.410,-31087.910,-92381.610,0.000
-30377.970,-30911.370,-31635.790,-67015.230,-27131.050,-34187.060,-31192.580,-92810.350,0.000
-30485.140,-31018.830,-31749.100,-67114.090,-27226.840,-34305.450,-31302.460,-93238.410,0.000
-30583.290,-31117.730,-31847.430,-67192.150,-27311.710,-34414.890,-31396.140,-93664.700,0.000
-30683.040,-31219.380,-31949.710,-67250.560,-27400.080,-34525.370,-31495.140,-94089.100,0.000
-30788.710,-31328.170,-32063.020,-67366.220,-27499.500,-34643.830,-31608.850,-94512.880,0.000
-30895.230,-31438.270,-32168.720,-67436.290,-27593.800,-34766.200,-31713.370,-94933.210,0.000
-31002.020,-31550.190,-32282.450,-67524.140,-27693.420,-34888.250,-31828.530,-95352.050,0.000
-31103.660,-31655.570,-32385.230,-67600.840,-27784.470,-35006.140,-31932.710,-95768.560,0.000
-31206.790,-31760.380,-32490.250,-67657.280,-27875.720,-35123.300,-32039.180,-96182.120,0.000
-31311.330,-31866.020,-32600.870,-67764.160,-27970.680,-35238.810,-32149.500,-96594.430,0.000
-31414.330,-31969.350,-32703.020,-67827.890,-28058.740,-35353.020,-32245.400,-97004.910,0.000
-31519.700,-32076.310,-32816.730,-67916.210,-28155.910,-35470.280,-32355.410,-97415.230,0.000
-31620.230,-32179.040,-32919.640,-67992.090,-28245.400,-35585.630,-32456.410,-97822.380,0.000
-31718.370,-32279.770,-33020.420,-68040.300,-28333.000,-35698.700,-32558.580,-98225.120,0.000
-31814.340,-32379.500,-33123.840,-68135.450,-28424.080,-35809.540,-32666.200,-98624.930,0.000
-31906.140,-32475.050,-33216.230,-68185.300,-28505.910,-35916.550,-32758.530,-99021.040,0.000
-31999.490,-32572.570,-33318.360,-68259.360,-28593.640,-36023.040,-32860.710,-99416.850,0.000
-32095.760,-32672.100,-33417.400,-68333.730,-28680.410,-36133.690,-32957.800,-99813.010,0.000
-32201.490,-32779.740,-33526.450,-68398.130,-28776.250,-36252.150,-33064.900,-100209.400,0.000
-32308.320,-32887.200,-33639.880,-68514.990,-28876.040,-36368.430,-33177.990,-100604.000,0.000
-32409.080,-32987.330,-33739.140,-68585.380,-28963.320,-36478.430,-33274.240,-100994.000,0.000
-32512.600,-33091.450,-33850.340,-68684.380,-29059.120,-36591.000,-33384.540,-101384.200,0.000
-32610.650,-33189.930,-33950.730,-68779.540,-29146.540,-36699.640,-33482.680,-101772.500,0.000
-32702.240,-33282.060,-34045.380,-68848.550,-29227.520,-36801.170,-33575.330,-102155.300,0.000
-32794.690,-33377.530,-34145.760,-68967.940,-29315.000,-36905.550,-33677.710,-102535.400,0.000
-32889.910,-33475.910,-34240.890,-69048.170,-29400.500,-37015.360,-33773.750,-102914.600,0.000
-32989.790,-33577.310,-34346.970,-69152.080,-29492.980,-37125.020,-33879.530,-103294.100,0.000
-33088.060,-33675.790,-34444.940,-69246.610,-29578.140,-37231.460,-33973.290,-103670.700,0.000
-33187.400,-33775.840,-34545.500,-69317.660,-29665.040,-37340.180,-34071.920,-104044.200,0.000
-33286.910,-33875.760,-34649.910,-69437.020,-29756.460,-37449.040,-34178.580,-104416.400,0.000
-33380.330,-33968.180,-34739.150,-69508.820,-29835.310,-37550.860,-34266.700,-104785.200,0.000
-33470.240,-34057.610,-34833.230,-69600.340,-29915.380,-37646.310,-34359.220,-105152.600,0.000
-33558.730,-34145.460,-34921.340,-69687.910,-29991.220,-37741.900,-34443.610,-105518.700,0.000
-33650.190,-34237.290,-35015.010,-69755.060,-30072.200,-37842.910,-34535.540,-105883.600,0.000
-33736.480,-34325.640,-35108.960,-69862.920,-30154.050,-37940.790,-34632.010,-106246.200,0.000
-33816.880,-34408.340,-35188.360,-69919.160,-30224.190,-38034.040,-34712.010,-106604.300,0.000
-33905.860,-34500.090,-35283.590,-70001.710,-30306.590,-38132.940,-34807.420,-106962.800,0.000
-33999.710,-34594.560,-35377.800,-70079.210,-30388.720,-38234.870,-34896.890,-107320.400,0.000
-34093.210,-34686.390,-35471.420,-70123.140,-30469.500,-38334.810,-34986.100,-107673.500,0.000
-34181.450,-34773.860,-35563.740,-70202.750,-30550.130,-38431.480,-35079.560,-108023.900,0.000
-34263.310,-34857.360,-35643.120,-70233.480,-30620.960,-38525.820,-35160.360,-108372.800,0.000
-34344.740,-34943.040,-35731.630,-70288.120,-30698.670,-38619.300,-35253.040,-108721.500,0.000
-34422.230,-35025.010,-35811.950,-70338.420,-30770.440,-38710.010,-35335.770,-109067.600,0.000
-34501.720,-35109.490,-35896.270,-70368.200,-30844.630,-38803.720,-35422.160,-109411.600,0.000
-34584.040,-35197.460,-35987.290,-70448.820,-30925.460,-38901.040,-35517.050,-109755.000,0.000
-34661.370,-35278.530,-36063.570,-70486.910,-30993.930,-38992.990,-35594.100,-110093.400,0.000
-34739.620,-35358.310,-36147.510,-70555.850,-31065.610,-39081.240,-35679.410,-110428.500,0.000
-34821.760,-35439.830,-36229.770,-70634.400,-31136.440,-39171.330,-35760.360,-110762.900,0.000
-34907.030,-35524.210,-36316.880,-70700.770,-31210.690,-39262.300,-35846.040,-111098.400,0.000
-34988.570,-35605.200,-36406.160,-70818.720,-31285.940,-39348.960,-35935.410,-111434.300,0.000
-35065.270,-35680.990,-36483.730,-70895.900,-31351.980,-39433.600,-36009.990,-111767.500,0.000
-35144.200,-35760.900,-36571.360,-71000.540,-31427.540,-39521.900,-36098.520,-112098.700,0.000
-35219.160,-35839.520,-36649.090,-71102.180,-31497.590,-39609.830,-36178.980,-112426.500,0.000
-35293.610,-35920.100,-36726.590,-71182.940,-31567.130,-39698.000,-36260.480,-112751.800,0.000
-35372.140,-36003.420,-36811.300,-71315.700,-31642.590,-39788.160,-36349.800,-113077.300,0.000
-35451.400,-36082.330,-36887.500,-71407.150,-31709.300,-39876.030,-36424.930,-113400.800,0.000
-35530.420,-36158.800,-36971.050,-71521.160,-31778.680,-39959.230,-36507.180,-113722.100,0.000
-35605.730,-36231.110,-37046.240,-71631.940,-31841.950,-40039.300,-36580.130,-114039.500,0.000
-35682.860,-36305.940,-37125.730,-71725.740,-31908.910,-40121.130,-36657.760,-114354.800,0.000
-35760.240,-36383.680,-37211.390,-71870.220,-31982.620,-40205.080,-36744.040,-114671.000,0.000
-35835.290,-36462.300,-37287.800,-71972.370,-32051.740,-40293.110,-36821.800,-114985.700,0.000
-35910.540,-36544.300,-37372.010,-72099.190,-32128.170,-40383.320,-36911.970,-115299.600,0.000
-35980.480,-36621.330,-37443.570,-72212.380,-32194.720,-40469.460,-36987.790,-115609.900,0.000
-36051.560,-36698.550,-37515.750,-72286.710,-32259.570,-40555.520,-37062.540,-115916.400,0.000
-36126.040,-36776.740,-37595.020,-72396.280,-32329.090,-40641.400,-37143.720,-116222.200,0.000
-36202.890,-36853.670,-37668.220,-72457.160,-32392.700,-40726.750,-37213.430,-116527.000,0.000
-36284.030,-36933.500,-37753.890,-72538.150,-32464.050,-40812.840,-37294.670,-116831.900,0.000
-36359.540,-37005.470,-37828.560,-72601.420,-32525.930,-40893.400,-37361.670,-117133.700,0.000
-36432.550,-37073.660,-37901.270,-72624.870,-32585.690,-40969.840,-37426.670,-117431.900,0.000
-36506.750,-37145.140,-37979.460,-72685.630,-32652.590,-41047.460,-37500.730,-117728.300,0.000
-36578.350,-37217.820,-38047.850,-72697.150,-32714.630,-41128.630,-37565.870,-118021.200,0.000
-36646.970,-37291.730,-38122.080,-72725.230,-32781.410,-41210.480,-37641.840,-118312.400,0.000
-36707.440,-37357.590,-38181.230,-72734.200,-32835.230,-41284.920,-37702.180,-118601.200,0.000
-36767.170,-37421.150,-38238.620,-72705.280,-32884.390,-41354.630,-37759.060,-118888.000,0.000
-36834.820,-37490.360,-38308.460,-72718.280,-32942.560,-41427.730,-37826.440,-119174.300,0.000
-36910.790,-37563.780,-38378.870,-72682.660,-33000.380,-41507.120,-37887.220,-119458.000,0.000
-36991.400,-37640.930,-38462.090,-72660.000,-33066.860,-41589.730,-37959.640,-119739.700,0.000
-37065.790,-37711.910,-38534.040,-72618.630,-33125.850,-41668.780,-38019.140,-120018.200,0.000
-37135.930,-37780.270,-38603.370,-72541.990,-33183.830,-41745.530,-38077.530,-120294.400,0.000
-37203.390,-37850.300,-38675.570,-72503.880,-33246.660,-41823.180,-38143.470,-120570.600,0.000
-37266.950,-37918.770,-38735.890,-72409.940,-33301.510,-41900.700,-38198.300,-120844.000,0.000
-37329.770,-37987.480,-38803.270,-72328.920,-33360.970,-41976.320,-38264.400,-121114.400,0.000
-37392.430,-38054.660,-38865.160,-72243.360,-33416.700,-42051.380,-38324.470,-121383.000,0.000
-37463.380,-38127.550,-38936.160,-72147.010,-33478.840,-42130.430,-38391.890,-121652.900,0.000
-37538.150,-38201.330,-39014.610,-72111.320,-33545.220,-42207.710,-38464.950,-121922.600,0.000
-37609.890,-38268.410,-39080.680,-72039.570,-33599.470,-42279.110,-38520.640,-122187.600,0.000
-37681.540,-38334.840,-39155.410,-72004.340,-33659.720,-42349.050,-38587.660,-122450.600,0.000
-37747.820,-38398.380,-39221.570,-71977.770,-33716.090,-42420.620,-38648.790,-122712.300,0.000
-37811.160,-38463.780,-39287.520,-71933.390,-33773.950,-42496.700,-38714.820,-122973.000,0.000
-37870.620,-38528.610,-39355.350,-71937.460,-33834.320,-42571.060,-38787.020,-123233.000,0.000
-37926.320,-38590.140,-39411.700,-71904.540,-33885.970,-42640.790,-38846.130,-123490.500,0.000
-37985.780,-38656.720,-39480.500,-71924.140,-33948.130,-42711.450,-38922.880,-123748.200,0.000
-38044.850,-38721.680,-39544.260,-71978.740,-34007.730,-42781.650,-38996.320,-124004.800,0.000
-38106.820,-38785.990,-39611.860,-72047.820,-34069.040,-42851.070,-39073.550,-124260.900,0.000
-38171.820,-38849.540,-39686.250,-72199.170,-34135.520,-42918.260,-39157.800,-124517.000,0.000
-38235.790,-38909.710,-39750.370,-72327.310,-34193.200,-42983.050,-39227.300,-124770.400,0.000
-38301.700,-38974.170,-39824.620,-72490.050,-34258.080,-43050.860,-39308.750,-125023.300,0.000
-38362.480,-39036.000,-39888.110,-72646.430,-34316.350,-43118.810,-39379.290,-125274.300,0.000
-38417.980,-39094.390,-39946.700,-72768.890,-34370.670,-43184.100,-39445.000,-125522.800,0.000
-38468.200,-39149.420,-40005.840,-72934.980,-34425.380,-43246.680,-39513.350,-125770.000,0.000
-38510.520,-39196.600,-40050.000,-73051.280,-34467.210,-43303.730,-39564.090,-126012.900,0.000
-38553.560,-39244.530,-40103.090,-73190.260,-34514.250,-43357.610,-39622.810,-126253.900,0.000
-38602.380,-39296.600,-40154.910,-73327.090,-34560.930,-43414.440,-39674.890,-126494.300,0.000
-38658.390,-39353.210,-40212.470,-73430.940,-34610.770,-43475.860,-39730.810,-126734.200,0.000
-38714.860,-39408.620,-40274.450,-73570.040,-34663.360,-43537.020,-39793.240,-126973.500,0.000
-38770.780,-39462.590,-40326.820,-73655.790,-34708.730,-43597.870,-39843.830,-127209.600,0.000
-38829.220,-39519.280,-40389.050,-73765.110,-34761.170,-43657.420,-39906.080,-127443.500,0.000
-38883.450,-39571.500,-40441.900,-73876.660,-34806.840,-43712.880,-39957.820,-127674.800,0.000
-38938.870,-39626.910,-40497.690,-73970.520,-34855.670,-43770.850,-40014.380,-127904.600,0.000
-38991.010,-39682.880,-40556.810,-74117.030,-34908.620,-43828.270,-40079.510,-128134.100,0.000
-39034.110,-39732.170,-40600.430,-74221.620,-34949.590,-43882.170,-40129.100,-128361.400,0.000
-39079.600,-39784.360,-40655.980,-74362.090,-34999.420,-43939.140,-40192.720,-128589.300,0.000
-39125.040,-39832.290,-40705.210,-74505.880,-35044.120,-43994.050,-40247.070,-128815.700,0.000
-39170.760,-39875.670,-40752.610,-74617.980,-35084.870,-44044.260,-40297.360,-129038.500,0.000
-39219.350,-39920.110,-40806.010,-74776.840,-35130.000,-44094.570,-40353.670,-129260.200,0.000
-39270.460,-39967.070,-40853.110,-74894.360,-35170.990,-44148.480,-40400.520,-129479.700,0.000
-39327.270,-40022.800,-40914.830,-75043.210,-35223.710,-44206.390,-40463.640,-129698.600,0.000
-39382.410,-40079.610,-40971.120,-75194.600,-35273.400,-44263.480,-40519.050,-129916.200,0.000
-39434.370,-40136.380,-41026.910,-75316.340,-35322.860,-44320.910,-40574.650,-130132.700,0.000
-39478.880,-40190.210,-41083.030,-75477.930,-35374.120,-44377.950,-40635.560,-130348.700,0.000
-39517.050,-40238.180,-41125.160,-75585.800,-35415.480,-44434.520,-40682.250,-130562.200,0.000
-39560.200,-40287.560,-41177.330,-75709.880,-35464.110,-44493.020,-40740.510,-130774.500,0.000
-39602.200,-40329.510,-41217.960,-75812.930,-35501.870,-44545.090,-40782.550,-130982.500,0.000
-39645.780,-40367.300,-41256.640,-75864.820,-35533.340,-44589.710,-40816.750,-131186.900,0.000
-39694.670,-40408.080,-41304.780,-75947.700,-35570.110,-44632.650,-40856.780,-131391.000,0.000
-39745.420,-40452.630,-41347.610,-75975.290,-35603.620,-44679.720,-40888.760,-131592.700,0.000
-39796.990,-40504.290,-41401.630,-76026.950,-35648.630,-44733.490,-40939.950,-131794.200,0.000
-39840.390,-40552.930,-41445.050,-76076.110,-35689.150,-44787.400,-40985.100,-131995.700,0.000
-39881.820,-40602.800,-41489.170,-76088.870,-35731.020,-44842.200,-41032.000,-132196.300,0.000
-39925.710,-40653.920,-41541.080,-76139.800,-35778.690,-44895.360,-41085.300,-132394.800,0.000
-39970.150,-40698.040,-41582.270,-76137.020,-35815.450,-44941.950,-41120.230,-132588.800,0.000
-40017.520,-40741.110,-41632.120,-76154.400,-35856.070,-44986.980,-41164.140,-132782.100,0.000
-40058.780,-40779.220,-41670.170,-76165.550,-35887.080,-45031.460,-41197.700,-132974.400,0.000
-40096.950,-40815.370,-41704.370,-76136.430,-35913.970,-45076.010,-41230.380,-133162.900,0.000
-40136.090,-40851.640,-41744.140,-76146.380,-35946.450,-45119.920,-41272.070,-133349.800,0.000
-40174.670,-40886.250,-41775.720,-76111.610,-35974.160,-45162.650,-41303.630,-133536.800,0.000
-40217.140,-40927.540,-41821.060,-76106.370,-36013.500,-45209.210,-41351.590,-133724.900,0.000
-40259.760,-40973.430,-41863.710,-76104.270,-36053.520,-45260.930,-41395.570,-133910.200,0.000
-40303.640,-41024.610,-41909.740,-76072.790,-36096.320,-45315.780,-41440.970,-134092.700,0.000
-40346.590,-41074.980,-41960.880,-76088.520,-36141.150,-45365.980,-41489.680,-134274.100,0.000
-40388.680,-41120.020,-42001.510,-76060.910,-36175.690,-45411.320,-41522.550,-134453.000,0.000
-40434.860,-41165.660,-42052.720,-76058.220,-36217.480,-45457.340,-41569.030,-134630.500,0.000
-40476.100,-41203.100,-42092.690,-76052.600,-36250.520,-45499.210,-41605.330,-134804.900,0.000
-40515.980,-41238.150,-42129.520,-76018.870,-36281.090,-45539.360,-41640.820,-134977.800,0.000
-40557.850,-41276.530,-42172.030,-76040.520,-36318.720,-45581.790,-41686.890,-135152.200,0.000
-40598.350,-41314.630,-42205.310,-76023.170,-36350.580,-45625.920,-41722.610,-135325.600,0.000
-40641.110,-41357.400,-42251.780,-76032.590,-36392.460,-45672.540,-41772.440,-135498.100,0.000
-40681.460,-41398.180,-42292.880,-76042.760,-36430.130,-45717.090,-41812.540,-135668.300,0.000
-40721.440,-41439.180,-42334.540,-76024.150,-36466.020,-45760.450,-41850.020,-135836.700,0.000
-40758.860,-41480.060,-42379.840,-76052.790,-36503.430,-45802.430,-41892.910,-136003.300,0.000
-40792.240,-41515.820,-42411.630,-76035.930,-36529.220,-45839.700,-41921.330,-136166.600,0.000
-40832.620,-41556.340,-42456.000,-76049.930,-36565.270,-45878.460,-41965.590,-136330.900,0.000
-40875.140,-41598.460,-42496.700,-76070.980,-36601.330,-45923.770,-42005.080,-136494.900,0.000
-40915.690,-41639.550,-42536.450,-76060.810,-36636.620,-45970.900,-42042.680,-136655.700,0.000
-40950.610,-41675.190,-42577.090,-76093.900,-36672.500,-46010.140,-42083.840,-136813.700,0.000
-40978.910,-41703.020,-42603.270,-76082.680,-36697.060,-46043.560,-42109.990,-136968.500,0.000
-41011.020,-41734.830,-42641.410,-76104.680,-36730.480,-46079.320,-42150.500,-137124.400,0.000
-41044.740,-41768.050,-42675.760,-76135.560,-36761.430,-46114.700,-42185.450,-137281.000,0.000
-41079.230,-41802.490,-42710.400,-76138.050,-36791.520,-46148.880,-42221.300,-137436.200,0.000
-41111.590,-41837.290,-42748.660,-76189.230,-36824.450,-46184.230,-42264.010,-137589.300,0.000
-41139.080,-41869.730,-42774.480,-76199.770,-36847.380,-46221.970,-42292.160,-137739.400,0.000
-41166.710,-41902.840,-42808.630,-76239.380,-36875.390,-46258.550,-42330.350,-137889.200,0.000
-41190.250,-41927.680,-42832.550,-76279.230,-36895.240,-46286.780,-42355.500,-138036.400,0.000
-41217.580,-41952.850,-42858.980,-76290.770,-36917.290,-46315.400,-42381.610,-138181.300,0.000
-41256.730,-41990.330,-42902.430,-76363.630,-36956.320,-46356.130,-42427.670,-138329.900,0.000
-41300.340,-42033.160,-42942.320,-76400.200,-36995.290,-46404.560,-42468.620,-138479.200,0.000
-41337.700,-42070.910,-42985.030,-76453.410,-37034.700,-46445.570,-42513.390,-138624.800,0.000
-41364.370,-42097.660,-43012.340,-76500.720,-37060.430,-46474.810,-42540.760,-138765.800,0.000
-41394.120,-42127.210,-43040.720,-76518.630,-37085.410,-46505.470,-42570.220,-138906.800,0.000
-41422.680,-42155.930,-43071.050,-76576.520,-37110.540,-46534.250,-42604.080,-139047.400,0.000
-41442.560,-42175.590,-43084.630,-76578.980,-37121.590,-46557.070,-42617.550,-139182.700,0.000
-41468.080,-42202.030,-43114.230,-76610.950,-37147.190,-46587.210,-42649.450,-139317.600,0.000
-41494.140,-42229.590,-43141.000,-76648.550,-37173.330,-46620.520,-42678.390,-139451.900,0.000
-41514.140,-42251.480,-43162.330,-76648.460,-37193.590,-46647.370,-42701.630,-139583.600,0.000
-41532.090,-42271.940,-43187.680,-76691.850,-37216.430,-46671.310,-42729.540,-139714.700,0.000
-41551.450,-42293.640,-43206.070,-76691.410,-37234.000,-46697.750,-42746.370,-139844.100,0.000
-41574.880,-42320.440,-43236.000,-76717.770,-37260.460,-46726.730,-42778.060,-139973.600,0.000
-41596.340,-42344.830,-43258.210,-76747.620,-37281.800,-46754.210,-42803.050,-140101.600,0.000
-41618.950,-42369.560,-43280.860,-76746.700,-37302.990,-46782.090,-42828.500,-140227.100,0.000
-41644.070,-42396.210,-43310.700,-76793.430,-37330.610,-46810.790,-42862.760,-140352.400,0.000
-41671.470,-42422.720,-43333.140,-76797.380,-37352.470,-46840.360,-42885.840,-140477.600,0.000
-41703.720,-42452.270,-43367.490,-76826.630,-37381.660,-46870.250,-42920.790,-140603.300,0.000
-41730.030,-42474.120,-43390.370,-76849.720,-37400.390,-46893.680,-42941.550,-140725.400,0.000
-41751.910,-42493.070,-43409.690,-76831.150,-37415.170,-46915.380,-42958.170,-140843.900,0.000
-41772.250,-42514.900,-43435.530,-76854.970,-37436.740,-46939.650,-42983.950,-140962.400,0.000
-41789.540,-42535.930,-43451.190,-76828.230,-37451.230,-46964.240,-42997.110,-141078.400,0.000
-41810.130,-42561.570,-43478.130,-76820.980,-37474.290,-46991.090,-43023.020,-141193.100,0.000
-41831.480,-42586.110,-43499.840,-76814.020,-37494.310,-47018.000,-43041.820,-141306.600,0.000
-41858.460,-42612.560,-43525.180,-76774.720,-37516.440,-47046.110,-43062.460,-141418.900,0.000
-41889.340,-42639.540,-43558.980,-76778.630,-37544.390,-47072.900,-43091.350,-141530.500,0.000
-41913.940,-42657.510,-43578.140,-76728.520,-37558.900,-47092.630,-43102.370,-141639.200,0.000
-41937.000,-42676.530,-43604.960,-76701.520,-37578.380,-47112.120,-43125.610,-141747.900,0.000
-41960.220,-42699.790,-43627.830,-76684.390,-37597.380,-47137.330,-43146.600,-141856.000,0.000
-41987.230,-42728.770,-43653.890,-76640.730,-37620.390,-47169.130,-43171.970,-141963.500,0.000
-42014.420,-42758.750,-43685.190,-76641.070,-37649.230,-47201.010,-43204.860,-142070.000,0.000
-42036.920,-42784.380,-43703.830,-76589.460,-37668.540,-47228.210,-43220.450,-142171.700,0.000
-42063.680,-42815.640,-43736.710,-76567.900,-37697.920,-47256.470,-43250.340,-142273.400,0.000
-42090.000,-42845.250,-43765.040,-76555.700,-37723.350,-47281.360,-43274.720,-142375.800,0.000
-42112.860,-42870.000,-43788.810,-76506.660,-37743.550,-47303.650,-43296.000,-142476.100,0.000
-42131.580,-42890.640,-43813.300,-76500.560,-37764.760,-47329.860,-43322.780,-142575.400,0.000
-42145.290,-42904.180,-43822.820,-76449.230,-37775.440,-47354.750,-43335.660,-142672.200,0.000
-42162.290,-42920.680,-43842.620,-76426.850,-37795.840,-47378.140,-43364.560,-142769.000,0.000
-42178.960,-42937.740,-43857.260,-76409.610,-37814.290,-47401.480,-43388.110,-142864.900,0.000
-42194.440,-42954.280,-43870.480,-76355.880,-37828.730,-47422.330,-43406.790,-142958.700,0.000
-42208.470,-42968.350,-43887.060,-76345.410,-37842.450,-47435.630,-43425.390,-143051.400,0.000
-42222.460,-42979.970,-43893.720,-76287.790,-37846.860,-47444.860,-43427.310,-143141.300,0.000
-42243.030,-42999.250,-43915.850,-76257.170,-37863.070,-47460.110,-43445.980,-143231.100,0.000
-42264.270,-43019.840,-43935.750,-76236.650,-37879.320,-47479.790,-43461.750,-143320.000,0.000
-42287.230,-43042.450,-43957.740,-76191.840,-37898.390,-47501.480,-43480.100,-143407.500,0.000
-42307.060,-43063.100,-43982.970,-76198.240,-37921.690,-47520.620,-43507.160,-143494.400,0.000
-42316.440,-43072.900,-43990.070,-76160.170,-37931.100,-47533.630,-43518.470,-143578.200,0.000
-42324.280,-43081.800,-44003.820,-76155.180,-37945.410,-47546.270,-43541.160,-143662.800,0.000
-42332.470,-43091.190,-44012.110,-76163.820,-37956.430,-47560.890,-43556.530,-143747.900,0.000
-42342.630,-43102.820,-44020.470,-76143.050,-37966.300,-47576.280,-43570.410,-143831.700,0.000
-42352.830,-43114.950,-44033.720,-76170.590,-37979.460,-47589.000,-43590.680,-143914.800,0.000
-42362.080,-43124.430,-44037.570,-76152.110,-37984.170,-47599.610,-43596.880,-143994.300,0.000
-42374.610,-43135.890,-44053.590,-76157.700,-37995.840,-47609.850,-43613.830,-144071.500,0.000
-42383.990,-43141.730,-44061.620,-76166.630,-37999.990,-47614.950,-43617.660,-144147.100,0.000
-42395.750,-43149.390,-44070.660,-76141.540,-38004.080,-47620.630,-43619.260,-144222.500,0.000
-42411.490,-43163.790,-44089.050,-76161.430,-38017.380,-47630.780,-43632.800,-144298.900,0.000
-42422.740,-43175.820,-44095.410,-76128.650,-38022.760,-47641.070,-43634.470,-144371.900,0.000
-42431.380,-43187.380,-44109.130,-76115.020,-38034.010,-47652.480,-43648.630,-144443.200,0.000
-42435.100,-43194.510,-44113.440,-76103.560,-38039.180,-47663.920,-43654.970,-144512.800,0.000
-42440.580,-43202.950,-44117.460,-76060.620,-38044.000,-47676.930,-43662.160,-144581.700,0.000
-42451.520,-43215.080,-44131.660,-76075.130,-38057.410,-47691.090,-43681.210,-144652.300,0.000
-42462.500,-43223.730,-44137.210,-76055.790,-38064.020,-47702.720,-43687.730,-144721.900,0.000
-42474.380,-43231.940,-44152.460,-76070.390,-38076.900,-47711.990,-43705.090,-144791.200,0.000
-42482.100,-43235.580,-44159.740,-76091.020,-38083.250,-47717.800,-43711.810,-144857.800,0.000
-42488.430,-43239.430,-44165.730,-76068.920,-38087.620,-47722.770,-43715.120,-144920.200,0.000
-42497.500,-43248.750,-44180.830,-76088.470,-38100.000,-47730.490,-43729.090,-144982.800,0.000
-42509.670,-43262.130,-44190.100,-76063.300,-38108.690,-47743.120,-43735.100,-145046.100,0.000
-42523.010,-43278.110,-44208.340,-76060.650,-38123.360,-47756.680,-43752.480,-145109.000,0.000
-42528.320,-43285.410,-44213.270,-76057.090,-38127.040,-47763.910,-43754.750,-145168.100,0.000
-42532.750,-43289.520,-44215.130,-76014.400,-38127.210,-47769.410,-43753.370,-145224.300,0.000
-42538.520,-43293.510,-44223.270,-76014.470,-38132.770,-47774.500,-43761.270,-145280.400,0.000
-42542.480,-43295.790,-44221.130,-75965.920,-38131.380,-47780.100,-43757.620,-145335.800,0.000
-42550.890,-43304.480,-44232.230,-75943.320,-38141.140,-47790.030,-43770.350,-145392.500,0.000
-42558.140,-43311.160,-44237.560,-75924.470,-38146.770,-47798.250,-43775.080,-145447.300,0.000
-42566.030,-43317.750,-44242.740,-75868.110,-38150.740,-47806.180,-43777.610,-145498.700,0.000
-42576.510,-43328.580,-44257.540,-75862.880,-38163.390,-47817.280,-43792.160,-145550.500,0.000
-42588.000,-43339.900,-44264.960,-75816.940,-38171.380,-47827.230,-43796.280,-145602.200,0.000
-42602.270,-43354.320,-44282.760,-75795.400,-38185.840,-47835.510,-43811.020,-145653.900,0.000
-42610.070,-43364.360,-44289.990,-75775.990,-38191.160,-47843.940,-43814.010,-145703.400,0.000
-42616.210,-43372.950,-44294.740,-75720.910,-38194.390,-47853.380,-43816.090,-145751.300,0.000
-42621.780,-43379.590,-44304.460,-75712.890,-38203.610,-47860.740,-43828.810,-145798.500,0.000
-42619.520,-43378.170,-44297.890,-75654.560,-38201.180,-47865.370,-43826.890,-145841.500,0.000
-42616.740,-43377.620,-44298.970,-75618.970,-38204.150,-47869.660,-43836.070,-145883.600,0.000
-42611.900,-43373.670,-44293.380,-75590.220,-38202.160,-47868.910,-43835.430,-145925.400,0.000
-42607.750,-43368.980,-44288.040,-75526.290,-38198.880,-47865.550,-43831.470,-145966.100,0.000
-42609.820,-43371.350,-44295.280,-75513.130,-38204.590,-47867.560,-43838.060,-146007.500,0.000
-42614.990,-43376.710,-44295.890,-75454.530,-38204.040,-47873.910,-43832.580,-146046.600,0.000
-42622.770,-43384.660,-44306.090,-75415.960,-38210.090,-47880.290,-43840.350,-146084.300,0.000
-42631.300,-43392.060,-44312.000,-75385.200,-38215.220,-47886.520,-43845.530,-146121.700,0.000
-42643.920,-43402.930,-44320.570,-75323.170,-38224.180,-47895.950,-43853.950,-146159.500,0.000
-42653.160,-43411.180,-44332.140,-75305.230,-38235.700,-47901.390,-43866.340,-146196.400,0.000
-42652.790,-43409.690,-44326.120,-75234.350,-38231.960,-47899.210,-43856.960,-146229.200,0.000
-42652.020,-43409.310,-44328.280,-75186.790,-38233.750,-47897.160,-43859.090,-146261.900,0.000
-42649.800,-43407.210,-44324.500,-75149.780,-38231.430,-47894.360,-43854.810,-146294.600,0.000
-42649.150,-43405.200,-44320.650,-75076.860,-38226.800,-47891.230,-43848.010,-146324.900,0.000
-42649.360,-43404.130,-44323.390,-75047.050,-38226.880,-47888.980,-43850.070,-146354.200,0.000
-42647.120,-43400.890,-44315.450,-74971.030,-38220.150,-47888.160,-43841.200,-146381.800,0.000
-42650.490,-43405.190,-44322.390,-74924.340,-38226.070,-47892.930,-43849.700,-146409.400,0.000
-42654.430,-43410.410,-44326.710,-74889.490,-38230.910,-47897.490,-43852.400,-146436.800,0.000
-42657.610,-43414.290,-44329.510,-74820.770,-38233.890,-47899.240,-43852.180,-146463.800,0.000
-42660.470,-43417.820,-44337.520,-74801.990,-38241.750,-47899.940,-43861.260,-146491.100,0.000
-42658.420,-43415.630,-44331.540,-74739.580,-38239.100,-47899.410,-43857.010,-146514.700,0.000
-42655.270,-43412.750,-44332.430,-74702.130,-38241.020,-47898.900,-43864.520,-146536.700,0.000
-42649.620,-43407.140,-44325.610,-74674.580,-38237.540,-47895.510,-43863.740,-146559.000,0.000
-42645.000,-43403.030,-44318.000,-74611.400,-38233.220,-47892.020,-43860.420,-146581.300,0.000
-42642.780,-43401.530,-44319.370,-74594.340,-38236.050,-47890.070,-43865.480,-146603.000,0.000
-42640.250,-43398.340,-44312.530,-74531.630,-38230.710,-47886.550,-43855.240,-146621.600,0.000
-42640.570,-43398.690,-44316.870,-74494.550,-38231.830,-47881.550,-43855.410,-146639.000,0.000
-42640.170,-43397.450,-44315.890,-74470.340,-38230.110,-47875.480,-43849.780,-146654.600,0.000
-42641.220,-43397.270,-44315.060,-74412.280,-38229.590,-47874.460,-43847.610,-146668.900,0.000
-42638.620,-43395.350,-44317.040,-74397.530,-38231.530,-47873.850,-43853.390,-146683.800,0.000
-42626.290,-43383.180,-44299.880,-74333.070,-38217.210,-47863.410,-43836.730,-146696.600,0.000
-42615.940,-43372.300,-44291.370,-74293.910,-38210.000,-47851.370,-43831.610,-146708.600,0.000
-42610.060,-43364.820,-44282.570,-74267.160,-38205.050,-47843.260,-43826.330,-146720.600,0.000
-42608.230,-43361.520,-44276.560,-74204.030,-38200.670,-47836.930,-43821.110,-146733.100,0.000
-42606.660,-43360.470,-44277.140,-74185.770,-38200.270,-47832.740,-43822.000,-146745.500,0.000
-42603.550,-43357.550,-44268.030,-74123.760,-38192.340,-47830.840,-43808.910,-146754.800,0.000
-42604.040,-43357.520,-44271.340,-74090.140,-38193.660,-47828.410,-43809.810,-146763.700,0.000
-42598.940,-43351.490,-44265.830,-74066.960,-38188.400,-47821.100,-43802.170,-146771.000,0.000
-42589.020,-43341.140,-44254.670,-74006.160,-38177.870,-47811.910,-43790.880,-146776.200,0.000
-42577.320,-43328.540,-44246.880,-73990.340,-38170.060,-47798.130,-43786.720,-146782.200,0.000
-42562.590,-43310.680,-44225.630,-73927.640,-38151.800,-47778.630,-43766.580,-146787.000,0.000
-42552.660,-43299.650,-44216.790,-73889.220,-38144.620,-47765.940,-43761.770,-146791.300,0.000
-42543.140,-43292.570,-44205.610,-73858.840,-38138.690,-47761.280,-43754.290,-146793.800,0.000
-42534.580,-43287.680,-44196.030,-73788.320,-38133.270,-47759.040,-43746.160,-146794.200,0.000
-42528.780,-43284.850,-44196.570,-73763.450,-38134.970,-47755.700,-43747.540,-146795.200,0.000
-42521.820,-43278.950,-44187.550,-73694.950,-38128.640,-47749.190,-43734.640,-146795.100,0.000
-42514.480,-43271.160,-44185.070,-73647.060,-38125.740,-47739.230,-43730.350,-146795.000,0.000
-42502.200,-43256.920,-44171.620,-73600.950,-38113.510,-47725.510,-43715.520,-146792.800,0.000
-42495.290,-43248.770,-44160.950,-73516.230,-38103.080,-47717.700,-43703.170,-146788.800,0.000
-42497.400,-43250.710,-44164.980,-73479.920,-38106.340,-47716.650,-43706.460,-146785.300,0.000
-42496.350,-43248.510,-44157.750,-73395.230,-38101.510,-47711.970,-43694.350,-146779.300,0.000
-42490.450,-43242.220,-44155.290,-73330.160,-38098.520,-47701.750,-43689.190,-146771.900,0.000
-42475.430,-43227.740,-44140.720,-73273.720,-38085.510,-47685.460,-43672.860,-146763.200,0.000
-42456.490,-43210.460,-44120.830,-73180.410,-38067.840,-47667.830,-43653.090,-146753.300,0.000
-42441.190,-43198.000,-44110.350,-73136.580,-38059.050,-47654.890,-43646.750,-146744.500,0.000
-42428.390,-43186.980,-44093.430,-73051.980,-38046.180,-47644.560,-43630.840,-146733.700,0.000
-42418.870,-43178.300,-44087.070,-72993.090,-38040.740,-47632.790,-43626.050,-146722.600,0.000
-42408.680,-43166.520,-44074.460,-72946.220,-38030.310,-47618.000,-43611.940,-146711.600,0.000
-42400.720,-43154.200,-44061.700,-72862.400,-38017.840,-47603.020,-43593.860,-146699.800,0.000
-42392.230,-43140.950,-44054.900,-72820.550,-38009.520,-47586.110,-43583.640,-146687.500,0.000
-42378.170,-43123.150,-44034.300,-72730.070,-37990.930,-47567.010,-43561.060,-146673.200,0.000
-42365.610,-43109.930,-44023.380,-72662.360,-37980.360,-47552.340,-43554.540,-146658.700,0.000
-42352.840,-43098.200,-44008.920,-72604.690,-37968.940,-47541.340,-43543.680,-146642.600,0.000
-42340.650,-43087.310,-43993.760,-72507.840,-37956.940,-47530.090,-43528.460,-146624.500,0.000
-42329.050,-43077.470,-43983.990,-72452.570,-37949.700,-47516.980,-43519.610,-146606.700,0.000
-42320.000,-43069.920,-43967.290,-72351.270,-37937.800,-47507.940,-43501.260,-146588.100,0.000
-42318.290,-43069.970,-43967.430,-72276.670,-37938.450,-47505.400,-43500.570,-146570.300,0.000
-42310.570,-43061.990,-43958.630,-72211.480,-37931.700,-47494.390,-43489.150,-146550.700,0.000
-42297.690,-43047.510,-43942.390,-72103.910,-37918.310,-47476.100,-43470.710,-146529.000,0.000
-42285.200,-43034.990,-43932.910,-72037.590,-37911.050,-47464.030,-43462.620,-146507.000,0.000
-42271.440,-43021.360,-43914.430,-71924.900,-37896.750,-47457.960,-43443.980,-146482.600,0.000
-42261.300,-43011.070,-43907.020,-71838.910,-37890.420,-47451.070,-43440.150,-146460.100,0.000
-42247.840,-42996.610,-43890.440,-71762.640,-37877.500,-47436.070,-43426.930,-146437.200,0.000
-42233.740,-42982.270,-43870.690,-71643.980,-37861.710,-47418.850,-43408.770,-146410.400,0.000
-42221.660,-42971.720,-43860.410,-71572.260,-37854.000,-47403.610,-43400.900,-146383.500,0.000
-42205.450,-42955.710,-43838.650,-71459.370,-37835.970,-47384.810,-43377.400,-146356.200,0.000
-42188.360,-42937.780,-43824.270,-71369.670,-37821.420,-47363.770,-43362.350,-146328.500,0.000
-42171.080,-42919.130,-43805.770,-71292.470,-37805.050,-47344.490,-43341.950,-146299.400,0.000
-42159.790,-42906.390,-43791.430,-71182.660,-37792.680,-47330.590,-43324.880,-146269.600,0.000
-42150.100,-42895.790,-43784.560,-71119.730,-37786.690,-47316.570,-43318.820,-146240.100,0.000
-42133.810,-42878.380,-43762.370,-71009.910,-37768.360,-47296.980,-43296.090,-146208.100,0.000
-42117.840,-42862.650,-43749.210,-70922.690,-37755.700,-47277.250,-43283.680,-146174.800,0.000
-42101.330,-42847.070,-43732.500,-70850.480,-37741.030,-47259.640,-43265.460,-146140.500,0.000
-42085.620,-42831.850,-43715.160,-70744.850,-37725.390,-47242.920,-43245.180,-146105.600,0.000
-42066.500,-42812.120,-43699.890,-70682.860,-37710.310,-47220.210,-43229.590,-146070.000,0.000
-42042.110,-42785.380,-43669.690,-70575.070,-37682.970,-47192.960,-43197.770,-146032.000,0.000
-42028.070,-42769.820,-43657.570,-70499.130,-37670.930,-47175.620,-43187.320,-145997.300,0.000
-42019.420,-42761.020,-43647.210,-70441.810,-37662.790,-47166.270,-43178.560,-145964.700,0.000
-42007.500,-42750.430,-43632.410,-70341.700,-37650.430,-47155.330,-43164.370,-145929.500,0.000
-41994.230,-42738.420,-43622.290,-70281.590,-37641.640,-47139.960,-43155.670,-145892.300,0.000
-41981.180,-42723.900,-43602.690,-70177.770,-37625.850,-47121.920,-43132.800,-145852.600,0.000
-41968.310,-42708.670,-43591.370,-70093.630,-37614.890,-47102.130,-43118.510,-145812.200,0.000
-41946.220,-42684.600,-43568.400,-70012.590,-37594.090,-47077.190,-43092.210,-145769.200,0.000
-41921.570,-42660.050,-43542.020,-69891.380,-37570.820,-47052.740,-43064.310,-145723.700,0.000
-41899.960,-42639.800,-43524.540,-69817.910,-37556.180,-47030.540,-43049.670,-145679.400,0.000
-41878.160,-42618.110,-43497.860,-69700.720,-37534.950,-47007.970,-43023.130,-145634.700,0.000
-41861.680,-42602.250,-43484.130,-69606.330,-37523.930,-46988.070,-43010.360,-145589.900,0.000
-41843.690,-42583.930,-43463.110,-69520.380,-37507.920,-46966.320,-42989.040,-145542.700,0.000
-41823.700,-42561.720,-43436.520,-69395.270,-37485.670,-46941.640,-42961.260,-145493.700,0.000
-41806.430,-42542.980,-43419.630,-69324.170,-37470.610,-46918.440,-42944.320,-145447.000,0.000
-41792.590,-42529.760,-43399.340,-69219.950,-37454.160,-46901.640,-42920.830,-145401.900,0.000
-41784.800,-42525.030,-43394.320,-69142.830,-37451.150,-46893.460,-42916.880,-145359.600,0.000
-41773.610,-42515.870,-43382.290,-69075.920,-37444.440,-46884.230,-42908.180,-145317.500,0.000
-41757.300,-42499.380,-43363.000,-68967.460,-37430.340,-46867.810,-42891.710,-145271.500,0.000
-41736.820,-42478.340,-43345.570,-68902.450,-37416.480,-46845.270,-42878.080,-145222.600,0.000
-41713.000,-42453.420,-43315.690,-68791.800,-37392.410,-46820.550,-42848.590,-145170.300,0.000
-41692.920,-42432.770,-43296.970,-68699.130,-37375.510,-46796.590,-42830.380,-145117.600,0.000
-41671.270,-42410.400,-43272.600,-68616.320,-37354.340,-46770.360,-42803.870,-145064.500,0.000
-41649.530,-42387.680,-43246.770,-68500.280,-37331.990,-46744.410,-42775.640,-145010.400,0.000
-41629.540,-42367.340,-43230.470,-68438.760,-37317.620,-46721.150,-42761.050,-144957.300,0.000
-41604.500,-42340.950,-43201.430,-68336.090,-37292.730,-46693.830,-42732.550,-144902.000,0.000
-41577.280,-42311.710,-43177.600,-68249.020,-37270.360,-46660.390,-42710.760,-144844.900,0.000
-41552.780,-42286.340,-43153.130,-68176.440,-37248.620,-46633.280,-42685.250,-144788.000,0.000
-41536.490,-42271.870,-43135.890,-68078.450,-37233.570,-46618.860,-42664.960,-144732.900,0.000
-41521.580,-42259.580,-43124.650,-68030.450,-37224.740,-46602.410,-42654.020,-144678.900,0.000
-41501.920,-42240.410,-43097.630,-67936.000,-37204.540,-46580.300,-42626.990,-144622.000,0.000
-41482.140,-42220.510,-43078.550,-67860.880,-37189.630,-46558.290,-42611.200,-144563.800,0.000
-41456.500,-42193.550,-43051.460,-67798.200,-37167.650,-46530.960,-42586.840,-144503.500,0.000
-41431.850,-42166.870,-43024.630,-67706.870,-37144.620,-46503.640,-42562.550,-144442.300,0.000
-41411.620,-42145.820,-43008.940,-67671.140,-37130.250,-46479.690,-42550.730,-144382.400,0.000
-41386.660,-42120.410,-42979.630,-67592.090,-37104.820,-46452.870,-42520.810,-144319.900,0.000
-41362.820,-42096.630,-42958.780,-67534.180,-37085.920,-46425.800,-42500.590,-144258.000,0.000
-41340.930,-42073.480,-42935.460,-67492.480,-37066.210,-46398.930,-42476.610,-144197.500,0.000
-41318.570,-42048.830,-42909.040,-67414.480,-37042.930,-46370.700,-42449.650,-144135.500,0.000
-41291.740,-42020.720,-42884.840,-67381.220,-37021.880,-46339.530,-42428.940,-144071.500,0.000
-41262.140,-41990.070,-42850.240,-67308.020,-36994.410,-46308.500,-42395.370,-144005.400,0.000
-41241.460,-41969.380,-42833.460,-67262.190,-36981.370,-46284.370,-42379.810,-143941.700,0.000
-41221.290,-41948.760,-42814.040,-67228.330,-36965.640,-46258.520,-42357.710,-143877.900,0.000
-41197.350,-41924.120,-42788.390,-67152.840,-36942.140,-46227.770,-42326.490,-143810.700,0.000
-41176.500,-41903.900,-42771.540,-67125.850,-36925.730,-46202.550,-42307.170,-143743.600,0.000
-41159.170,-41886.630,-42748.880,-67060.050,-36906.300,-46184.170,-42281.820,-143676.500,0.000
-41143.050,-41871.010,-42734.520,-67012.560,-36894.300,-46166.150,-42269.870,-143609.500,0.000
-41119.030,-41847.360,-42708.350,-66971.400,-36874.580,-46141.000,-42247.370,-143540.500,0.000
-41093.110,-41819.950,-42678.520,-66890.450,-36850.020,-46110.780,-42218.490,-143469.400,0.000
-41070.960,-41795.040,-42659.440,-66857.800,-36832.400,-46080.850,-42198.650,-143399.300,0.000
-41046.450,-41768.060,-42629.720,-66782.630,-36806.370,-46051.610,-42163.860,-143327.800,0.000
-41021.250,-41742.840,-42606.340,-66723.490,-36785.460,-46023.120,-42140.190,-143256.100,0.000
-40993.160,-41714.220,-42575.780,-66672.770,-36760.290,-45992.510,-42111.990,-143184.100,0.000
-40968.410,-41687.880,-42547.600,-66587.490,-36736.800,-45964.880,-42084.850,-143112.800,0.000
-40949.250,-41668.810,-42532.390,-66552.250,-36724.470,-45942.850,-42070.800,-143042.100,0.000
-40926.720,-41646.730,-42504.790,-66469.900,-36702.070,-45918.310,-42040.250,-142966.400,0.000
-40901.730,-41621.790,-42482.090,-66401.340,-36680.680,-45887.820,-42015.240,-142888.200,0.000
-40873.130,-41591.800,-42452.140,-66344.860,-36653.520,-45853.060,-41982.390,-142811.100,0.000
-40845.210,-41562.110,-42420.390,-66251.440,-36625.610,-45819.850,-41948.790,-142734.500,0.000
-40819.380,-41535.320,-42397.110,-66202.260,-36605.820,-45789.570,-41927.540,-142658.400,0.000
-40791.670,-41506.840,-42364.150,-66110.090,-36579.290,-45760.340,-41895.440,-142581.500,0.000
-40763.050,-41480.200,-42338.750,-66036.940,-36557.900,-45731.410,-41874.660,-142504.000,0.000
-40728.550,-41448.880,-42303.660,-65971.450,-36528.640,-45697.880,-41843.440,-142424.000,0.000
-40694.450,-41416.320,-42265.970,-65865.000,-36496.070,-45661.800,-41806.540,-142342.100,0.000
-40665.030,-41387.080,-42238.490,-65805.850,-36473.010,-45628.860,-41782.280,-142262.500,0.000
-40635.190,-41356.860,-42201.450,-65705.780,-36443.910,-45599.250,-41748.770,-142182.700,0.000
-40606.350,-41328.530,-42172.940,-65626.750,-36419.780,-45567.800,-41726.140,-142101.900,0.000
-40574.160,-41296.360,-42137.530,-65561.380,-36389.940,-45530.360,-41693.360,-142019.500,0.000
-40541.630,-41264.230,-42100.520,-65456.500,-36357.980,-45494.930,-41654.520,-141936.200,0.000
-40509.790,-41233.780,-42071.730,-65394.510,-36331.620,-45461.400,-41623.760,-141853.100,0.000
-40473.360,-41197.090,-42030.050,-65287.380,-36294.120,-45421.770,-41578.190,-141766.600,0.000
-40438.910,-41162.070,-41998.340,-65199.830,-36264.230,-45382.440,-41546.400,-141679.200,0.000
-40408.660,-41131.350,-41967.180,-65129.770,-36238.010,-45351.200,-41517.200,-141593.300,0.000
-40381.980,-41104.690,-41936.700,-65023.930,-36214.080,-45324.900,-41491.690,-141507.700,0.000
-40353.860,-41077.040,-41910.390,-64961.700,-36193.850,-45293.460,-41473.400,-141422.700,0.000
-40322.070,-41043.900,-41871.020,-64858.520,-36162.330,-45256.240,-41436.140,-141336.500,0.000
-40293.550,-41013.570,-41842.330,-64778.710,-36138.220,-45222.090,-41410.430,-141250.900,0.000
-40263.980,-40981.600,-41809.390,-64711.710,-36112.260,-45190.020,-41381.580,-141164.200,0.000
-40230.760,-40945.410,-41771.800,-64602.880,-36081.180,-45153.400,-41346.940,-141074.200,0.000
-40194.420,-40907.180,-41739.320,-64541.240,-36053.070,-45110.960,-41316.710,-140983.600,0.000
-40160.320,-40872.160,-41701.430,-64447.480,-36021.740,-45071.930,-41275.240,-140892.500,0.000
-40136.180,-40849.230,-41680.920,-64380.940,-36004.510,-45042.840,-41252.430,-140803.100,0.000
-40111.300,-40825.940,-41655.040,-64325.210,-35983.580,-45014.130,-41225.040,-140712.700,0.000
-40083.960,-40798.350,-41623.160,-64226.120,-35956.610,-44982.180,-41192.630,-140620.400,0.000
-40057.350,-40769.520,-41597.420,-64171.650,-35934.550,-44950.000,-41171.130,-140529.200,0.000
-40028.290,-40736.110,-41559.800,-64073.730,-35903.330,-44916.980,-41135.000,-140436.900,0.000
-39998.710,-40701.530,-41529.230,-63991.030,-35876.050,-44880.630,-41103.890,-140343.500,0.000
-39962.540,-40660.880,-41489.510,-63916.190,-35841.300,-44837.250,-41061.820,-140248.000,0.000
-39922.920,-40621.120,-41446.070,-63799.150,-35803.040,-44793.570,-41018.150,-140151.100,0.000
-39885.360,-40587.940,-41412.790,-63730.700,-35773.430,-44754.050,-40987.810,-140056.800,0.000
-39851.450,-40556.680,-41373.580,-63627.030,-35739.480,-44718.010,-40946.750,-139962.800,0.000
-39825.430,-40530.780,-41348.520,-63544.740,-35716.250,-44686.820,-40921.080,-139868.300,0.000
-39797.350,-40501.800,-41318.280,-63472.560,-35690.750,-44655.570,-40892.150,-139771.700,0.000
-39765.410,-40468.290,-41282.300,-63357.840,-35660.050,-44621.070,-40857.880,-139673.100,0.000
-39731.050,-40432.040,-41250.440,-63286.360,-35631.060,-44581.250,-40827.420,-139575.000,0.000
-39691.060,-40389.980,-41204.640,-63169.950,-35590.490,-44535.250,-40778.010,-139475.000,0.000
-39652.970,-40351.210,-41168.970,-63068.650,-35557.700,-44489.400,-40739.880,-139375.800,0.000
-39620.390,-40319.100,-41135.740,-62980.450,-35529.210,-44451.930,-40703.270,-139278.400,0.000
-39593.390,-40293.980,-41105.660,-62847.030,-35503.600,-44423.290,-40668.760,-139179.800,0.000
-39563.170,-40265.630,-41077.990,-62739.460,-35478.600,-44390.380,-40638.950,-139077.700,0.000
-39525.960,-40226.630,-41032.430,-62568.010,-35438.450,-44349.520,-40589.290,-138971.800,0.000
-39494.800,-40191.110,-40998.310,-62398.430,-35407.150,-44311.820,-40552.590,-138868.100,0.000
-39467.740,-40158.080,-40963.840,-62225.900,-35376.730,-44277.280,-40512.570,-138765.600,0.000
-39441.060,-40126.160,-40927.600,-61992.910,-35343.910,-44242.260,-40467.640,-138660.500,0.000
-39413.200,-40096.910,-40899.200,-61784.680,-35317.700,-44206.710,-40432.160,-138555.400,0.000
-39377.800,-40062.920,-40857.140,-61513.820,-35281.380,-44169.370,-40382.270,-138448.100,0.000
-39340.830,-40029.490,-40821.460,-61240.900,-35249.260,-44133.620,-40343.450,-138339.100,0.000
-39307.030,-39998.610,-40785.250,-60976.350,-35218.380,-44101.450,-40304.610,-138230.300,0.000
-39278.370,-39970.870,-40751.930,-60681.400,-35189.880,-44070.460,-40266.820,-138122.500,0.000
-39250.510,-39942.160,-40725.950,-60444.130,-35166.530,-44035.950,-40237.780,-138015.400,0.000
-39218.960,-39907.370,-40686.780,-60177.590,-35132.900,-43997.640,-40194.110,-137905.900,0.000
-39189.300,-39874.480,-40656.250,-59939.110,-35106.050,-43958.770,-40163.090,-137796.300,0.000
-39156.850,-39839.430,-40620.320,-59729.180,-35075.890,-43916.920,-40127.690,-137686.700,0.000
-39123.530,-39805.490,-40583.690,-59511.560,-35045.250,-43879.700,-40092.600,-137577.200,0.000
-39091.840,-39775.390,-40557.680,-59381.070,-35024.310,-43850.060,-40072.940,-137469.000,0.000
-39054.050,-39738.830,-40517.190,-59240.940,-34991.960,-43813.670,-40037.270,-137359.400,0.000
-39012.570,-39699.870,-40480.550,-59135.070,-34960.890,-43769.400,-40007.480,-137250.000,0.000
-38968.650,-39658.450,-40438.960,-59059.730,-34927.270,-43724.960,-39974.170,-137139.800,0.000
-38926.820,-39617.430,-40397.800,-58984.110,-34895.430,-43682.340,-39943.460,-137029.100,0.000
-38887.280,-39578.290,-40365.950,-59005.790,-34871.770,-43638.510,-39925.450,-136922.100,0.000
-38848.680,-39538.860,-40325.220,-59015.750,-34840.060,-43595.250,-39893.190,-136816.100,0.000
-38817.700,-39506.190,-40297.930,-59045.300,-34816.180,-43556.640,-39870.050,-136710.300,0.000
-38784.080,-39469.330,-40263.690,-59083.910,-34785.880,-43513.510,-39835.020,-136601.900,0.000
-38746.310,-39427.710,-40223.160,-59106.950,-34751.150,-43465.350,-39796.510,-136490.900,0.000
-38710.910,-39390.160,-40193.440,-59229.500,-34727.920,-43420.980,-39777.910,-136383.100,0.000
-38672.950,-39351.770,-40153.000,-59340.230,-34697.010,-43379.480,-39747.480,-136275.600,0.000
-38632.800,-39315.490,-40118.520,-59461.350,-34669.390,-43339.480,-39723.040,-136168.200,0.000
-38587.650,-39277.510,-40079.140,-59589.140,-34638.960,-43299.450,-39692.520,-136060.700,0.000
-38540.540,-39237.850,-40039.240,-59703.750,-34607.840,-43256.920,-39662.990,-135951.800,0.000
-38494.960,-39197.340,-40007.140,-59913.920,-34582.460,-43208.680,-39645.140,-135842.400,0.000
-38450.890,-39153.110,-39962.140,-60101.220,-34546.260,-43158.190,-39609.330,-135731.700,0.000
-38413.610,-39113.050,-39925.690,-60284.840,-34515.320,-43113.510,-39581.650,-135622.300,0.000
-38378.110,-39072.740,-39885.980,-60462.090,-34481.680,-43070.570,-39548.500,-135513.000,0.000
-38345.070,-39033.880,-39849.500,-60629.880,-34450.300,-43027.140,-39519.390,-135403.100,0.000
-38311.320,-38997.430,-39823.590,-60905.570,-34429.160,-42983.850,-39506.460,-135294.800,0.000
-38268.890,-38955.950,-39780.250,-61146.240,-34395.110,-42938.490,-39470.100,-135183.900,0.000
-38221.870,-38912.980,-39737.320,-61348.450,-34358.980,-42890.610,-39430.970,-135070.400,0.000
-38168.710,-38863.190,-39683.960,-61506.460,-34312.700,-42837.230,-39379.870,-134955.400,0.000
-38117.460,-38812.230,-39630.990,-61633.320,-34265.930,-42783.050,-39333.040,-134841.500,0.000
-38074.040,-38766.900,-39592.920,-61866.160,-34233.580,-42733.040,-39307.550,-134731.000,0.000
-38032.760,-38721.410,-39545.780,-62062.380,-34195.620,-42685.330,-39266.020,-134618.400,0.000
-37994.390,-38679.420,-39507.230,-62220.290,-34162.620,-42639.890,-39229.310,-134503.000,0.000
-37954.940,-38638.160,-39464.290,-62334.440,-34125.150,-42594.850,-39184.230,-134386.000,0.000
-37917.300,-38600.760,-39422.220,-62411.200,-34089.070,-42551.550,-39143.130,-134269.400,0.000
-37880.040,-38565.320,-39388.650,-62585.100,-34062.430,-42508.390,-39119.690,-134155.100,0.000
-37837.730,-38523.030,-39339.930,-62712.610,-34023.480,-42461.780,-39074.830,-134038.100,0.000
-37796.800,-38480.590,-39299.050,-62802.950,-33988.450,-42414.250,-39033.670,-133920.200,0.000
-37753.650,-38434.600,-39252.770,-62855.700,-33948.890,-42364.380,-38984.660,-133801.400,0.000
-37712.040,-38389.980,-39208.150,-62878.520,-33910.120,-42315.680,-38941.040,-133681.900,0.000
-37674.530,-38351.610,-39177.360,-63009.850,-33883.210,-42271.730,-38919.340,-133564.800,0.000
-37633.860,-38311.380,-39132.540,-63090.610,-33845.060,-42229.320,-38877.740,-133445.000,0.000
-37593.810,-38273.430,-39092.800,-63121.980,-33809.810,-42187.770,-38838.340,-133324.200,0.000
-37551.980,-38232.980,-39046.130,-63103.790,-33769.340,-42143.880,-38788.850,-133203.100,0.000
-37511.080,-38190.840,-38998.090,-63031.190,-33726.730,-42097.000,-38738.630,-133080.500,0.000
-37472.580,-38149.200,-38960.760,-63040.210,-33692.880,-42048.630,-38703.180,-132958.500,0.000
-37429.130,-38101.100,-38908.140,-62988.130,-33646.620,-41999.550,-38645.800,-132833.500,0.000
-37384.840,-38053.450,-38860.450,-62898.390,-33603.020,-41950.410,-38593.990,-132706.000,0.000
-37342.220,-38008.720,-38810.840,-62779.610,-33558.370,-41902.200,-38538.190,-132577.300,0.000
-37305.100,-37970.990,-38766.070,-62612.120,-33517.070,-41861.430,-38484.510,-132448.200,0.000
-37271.570,-37938.660,-38733.160,-62516.390,-33485.570,-41826.310,-38446.000,-132321.100,0.000
-37234.920,-37901.840,-38685.730,-62358.410,-33442.140,-41787.500,-38389.520,-132192.500,0.000
-37198.150,-37864.130,-38644.980,-62182.590,-33403.230,-41742.580,-38341.900,-132063.400,0.000
-37158.500,-37822.250,-38599.130,-61993.710,-33362.080,-41693.630,-38286.800,-131932.900,0.000
-37114.400,-37773.530,-38547.770,-61744.120,-33316.210,-41641.550,-38223.740,-131798.800,0.000
-37065.900,-37720.200,-38500.600,-61547.550,-33273.810,-41586.200,-38169.450,-131664.400,0.000
-37021.210,-37672.770,-38447.710,-61302.250,-33229.070,-41538.380,-38109.510,-131530.200,0.000
-36991.740,-37644.340,-38418.210,-61086.340,-33205.100,-41505.660,-38079.720,-131399.200,0.000
-36960.840,-37615.700,-38384.500,-60895.080,-33178.430,-41471.750,-38045.270,-131268.300,0.000
-36918.150,-37575.380,-38336.770,-60642.680,-33136.860,-41427.400,-37992.970,-131132.400,0.000
-36874.560,-37533.950,-38296.540,-60431.480,-33099.700,-41382.870,-37950.320,-130995.600,0.000
-36837.930,-37496.710,-38253.750,-60178.960,-33062.370,-41344.090,-37902.980,-130860.700,0.000
-36806.400,-37463.910,-38223.670,-59972.380,-33037.310,-41306.610,-37875.310,-130729.100,0.000
-36769.330,-37425.450,-38184.160,-59799.100,-33006.840,-41265.820,-37839.250,-130596.200,0.000
-36730.260,-37385.070,-38138.350,-59553.900,-32969.250,-41224.810,-37790.130,-130459.300,0.000
-36690.910,-37345.790,-38098.710,-59317.100,-32934.350,-41182.380,-37745.090,-130321.400,0.000
-36647.770,-37302.910,-38046.050,-59014.730,-32888.400,-41136.390,-37685.390,-130181.500,0.000
-36608.680,-37264.140,-38006.960,-58769.750,-32852.770,-41090.910,-37646.190,-130044.400,0.000
-36570.550,-37224.040,-37965.850,-58583.790,-32815.840,-41044.500,-37602.950,-129909.400,0.000
-36532.330,-37182.390,-37919.190,-58330.940,-32772.900,-40997.580,-37547.020,-129772.300,0.000
-36497.020,-37145.210,-37881.600,-58081.670,-32737.640,-40954.040,-37499.930,-129634.000,0.000
-36464.290,-37110.450,-37839.560,-57777.950,-32700.640,-40915.210,-37447.890,-129493.400,0.000
-36433.960,-37077.900,-37811.260,-57548.790,-32674.380,-40876.290,-37417.890,-129354.200,0.000
-36395.910,-37037.020,-37772.300,-57387.880,-32639.310,-40829.720,-37377.380,-129215.600,0.000
-36354.450,-36993.070,-37724.500,-57168.360,-32596.220,-40782.070,-37323.370,-129075.600,0.000
-36314.740,-36952.430,-37684.280,-56962.120,-32559.700,-40736.930,-37279.120,-128936.100,0.000
-36272.770,-36909.390,-37633.470,-56708.000,-32515.520,-40690.420,-37224.740,-128795.100,0.000
-36235.260,-36871.750,-37598.430,-56537.640,-32485.540,-40646.530,-37195.050,-128656.400,0.000
-36198.650,-36836.230,-37563.510,-56449.600,-32459.010,-40606.130,-37168.000,-128520.000,0.000
-36160.200,-36799.830,-37522.780,-56309.650,-32426.980,-40566.610,-37130.840,-128381.600,0.000
-36117.370,-36758.630,-37483.160,-56179.670,-32393.070,-40519.370,-37091.860,-128241.700,0.000
-36070.280,-36710.820,-37429.810,-55997.790,-32346.550,-40464.750,-37034.530,-128100.400,0.000
-36031.630,-36671.710,-37394.290,-55892.910,-32315.170,-40416.810,-37002.800,-127962.200,0.000
-35993.740,-36632.850,-37355.990,-55856.690,-32283.150,-40371.650,-36969.930,-127823.900,0.000
-35951.650,-36587.970,-37307.740,-55763.450,-32241.500,-40323.220,-36924.180,-127681.800,0.000
-35909.170,-36542.310,-37265.840,-55693.720,-32206.170,-40275.170,-36889.090,-127539.100,0.000
-35862.430,-36492.470,-37213.420,-55577.520,-32164.210,-40225.400,-36842.770,-127394.600,0.000
-35814.470,-36444.030,-37171.950,-55522.630,-32129.770,-40173.040,-36810.730,-127252.100,0.000
-35767.070,-36398.590,-37129.100,-55530.890,-32094.300,-40121.460,-36774.710,-127113.400,0.000
-35728.060,-36362.710,-37089.650,-55504.480,-32061.170,-40075.780,-36737.400,-126978.000,0.000
-35696.970,-36335.820,-37064.010,-55526.630,-32040.310,-40039.240,-36715.430,-126845.500,0.000
-35661.750,-36303.130,-37024.660,-55500.550,-32009.570,-40006.460,-36678.710,-126709.300,0.000
-35619.700,-36259.630,-36986.460,-55507.660,-31977.840,-39961.560,-36649.180,-126570.400,0.000
-35569.570,-36203.980,-36935.930,-55546.620,-31935.320,-39901.930,-36606.750,-126429.900,0.000
-35521.900,-36150.980,-36883.320,-55540.210,-31891.190,-39844.610,-36559.630,-126289.900,0.000
-35477.520,-36104.180,-36841.070,-55588.610,-31856.500,-39790.050,-36526.110,-126152.000,0.000
-35425.960,-36051.430,-36782.500,-55587.420,-31808.790,-39730.580,-36473.690,-126010.700,0.000
-35372.320,-35999.150,-36732.070,-55610.400,-31767.540,-39672.110,-36434.110,-125869.200,0.000
-35319.240,-35950.020,-36681.670,-55657.900,-31728.690,-39620.770,-36395.240,-125729.200,0.000
-35271.640,-35907.040,-36633.820,-55653.230,-31691.070,-39576.520,-36356.160,-125588.200,0.000
-35229.180,-35866.340,-36597.300,-55705.200,-31660.100,-39529.660,-36327.480,-125448.300,0.000
-35185.030,-35818.500,-36547.180,-55709.190,-31616.520,-39475.040,-36277.890,-125307.600,0.000
-35138.600,-35767.590,-36501.410,-55720.360,-31575.500,-39417.390,-36235.420,-125166.200,0.000
-35086.210,-35711.820,-36446.270,-55735.160,-31527.930,-39358.430,-36183.300,-125023.300,0.000
-35037.960,-35660.750,-36390.570,-55690.910,-31480.390,-39305.310,-36128.820,-124879.400,0.000
-34997.840,-35618.820,-36349.970,-55700.710,-31445.790,-39258.460,-36091.180,-124736.700,0.000
-34956.390,-35575.430,-36299.390,-55653.220,-31401.770,-39209.930,-36035.840,-124592.700,0.000
-34914.220,-35532.380,-36257.330,-55604.860,-31362.440,-39159.970,-35989.420,-124448.300,0.000
-34867.770,-35484.580,-36208.540,-55558.010,-31318.120,-39107.350,-35934.490,-124302.400,0.000
-34821.670,-35435.710,-36157.140,-55450.050,-31270.540,-39053.320,-35873.480,-124155.300,0.000
-34777.100,-35388.730,-36115.820,-55389.550,-31231.070,-38998.880,-35824.650,-124009.500,0.000
-34728.210,-35338.630,-36060.510,-55265.090,-31181.260,-38944.740,-35758.450,-123861.300,0.000
-34685.140,-35297.850,-36018.050,-55147.210,-31142.740,-38898.730,-35709.900,-123713.200,0.000
-34645.570,-35260.250,-35974.300,-55041.410,-31105.590,-38856.200,-35661.130,-123565.100,0.000
-34606.080,-35218.460,-35924.260,-54865.010,-31062.600,-38810.450,-35604.130,-123414.800,0.000
-34565.180,-35172.840,-35879.410,-54720.020,-31022.020,-38759.490,-35554.400,-123264.300,0.000
-34518.230,-35120.180,-35821.080,-54512.830,-30969.250,-38703.460,-35487.490,-123111.900,0.000
-34476.840,-35075.340,-35779.800,-54330.200,-30930.970,-38655.190,-35442.750,-122960.600,0.000
-34438.820,-35035.720,-35740.920,-54178.670,-30897.570,-38613.930,-35400.620,-122809.600,0.000
-34397.270,-34993.950,-35695.120,-53963.130,-30857.680,-38569.480,-35347.350,-122655.900,0.000
-34353.720,-34952.920,-35655.340,-53780.800,-30822.900,-38523.680,-35303.230,-122503.000,0.000
-34307.660,-34909.020,-35602.190,-53542.990,-30778.290,-38477.250,-35244.590,-122349.000,0.000
-34266.580,-34868.640,-35559.280,-53336.400,-30740.910,-38431.270,-35199.970,-122195.200,0.000
-34229.300,-34829.460,-35515.800,-53172.770,-30703.870,-38387.060,-35154.090,-122041.900,0.000
-34192.560,-34788.550,-35469.150,-52954.650,-30663.110,-38342.740,-35101.680,-121887.400,0.000
-34154.170,-34745.520,-35429.920,-52767.870,-30627.190,-38293.690,-35056.940,-121733.600,0.000
-34110.130,-34696.450,-35377.110,-52526.400,-30580.290,-38239.300,-34994.880,-121578.400,0.000
-34066.370,-34651.000,-35334.380,-52321.150,-30541.810,-38188.510,-34950.040,-121423.200,0.000
-34020.380,-34606.650,-35288.150,-52161.370,-30502.110,-38141.090,-34904.650,-121268.000,0.000
-33971.370,-34560.290,-35233.890,-51944.810,-30454.470,-38090.180,-34848.090,-121112.000,0.000
-33924.090,-34515.860,-35187.510,-51758.570,-30411.960,-38034.480,-34799.050,-120958.000,0.000
-33883.670,-34476.170,-35138.910,-51529.820,-30369.300,-37985.700,-34743.630,-120804.500,0.000
-33851.520,-34442.930,-35107.380,-51346.660,-30343.010,-37949.300,-34711.500,-120652.400,0.000
-33810.590,-34399.100,-35065.070,-51202.110,-30308.880,-37904.800,-34670.120,-120497.900,0.000
-33762.190,-34348.160,-35011.660,-50996.490,-30263.020,-37851.180,-34615.250,-120339.600,0.000
-33715.570,-34301.530,-34967.800,-50824.910,-30225.020,-37801.180,-34573.910,-120182.700,0.000
-33666.960,-34252.880,-34912.270,-50605.160,-30177.670,-37750.050,-34518.080,-120025.800,0.000
-33621.450,-34206.930,-34866.540,-50420.060,-30136.310,-37695.600,-34474.200,-119870.400,0.000
-33576.190,-34160.540,-34818.380,-50278.380,-30094.140,-37639.730,-34426.770,-119716.500,0.000
-33531.040,-34114.880,-34767.680,-50090.230,-30050.450,-37588.110,-34374.370,-119562.300,0.000
-33486.660,-34071.480,-34726.360,-49942.660,-30015.650,-37540.840,-34334.910,-119408.300,0.000
-33435.770,-34020.540,-34669.950,-49745.030,-29969.760,-37489.070,-34279.340,-119251.100,0.000
-33383.250,-33967.480,-34620.640,-49579.610,-29928.500,-37432.120,-34236.100,-119094.700,0.000
-33331.590,-33914.340,-34569.960,-49458.550,-29885.950,-37373.710,-34189.870,-118939.800,0.000
-33286.220,-33867.410,-34520.950,-49296.440,-29843.410,-37321.750,-34140.410,-118784.000,0.000
-33245.790,-33826.890,-34483.790,-49183.960,-29810.200,-37275.030,-34104.190,-118628.600,0.000
-33199.740,-33780.390,-34431.430,-49025.880,-29764.710,-37223.030,-34048.940,-118471.400,0.000
-33152.570,-33733.440,-34386.100,-48891.310,-29724.430,-37168.770,-34004.150,-118314.800,0.000
-33103.160,-33684.390,-34336.720,-48785.320,-29682.450,-37115.380,-33956.320,-118158.400,0.000
-33052.450,-33634.140,-34281.940,-48626.820,-29636.010,-37062.440,-33903.270,-118000.500,0.000
-33001.860,-33585.020,-34234.480,-48512.920,-29595.300,-37008.290,-33860.880,-117843.500,0.000
-32951.590,-33534.740,-34178.000,-48350.570,-29546.550,-36953.580,-33803.210,-117685.000,0.000
-32910.850,-33492.400,-34137.940,-48206.700,-29509.520,-36903.110,-33761.400,-117526.900,0.000
-32870.480,-33447.600,-34093.620,-48085.770,-29469.320,-36849.990,-33713.550,-117369.500,0.000
-32828.140,-33398.970,-34042.170,-47913.850,-29423.010,-36795.750,-33658.310,-117211.700,0.000
-32787.720,-33354.720,-34002.040,-47792.970,-29387.110,-36747.000,-33619.720,-117055.300,0.000
-32740.070,-33305.590,-33948.070,-47622.610,-29340.140,-36695.950,-33563.610,-116896.400,0.000
-32688.340,-33254.470,-33899.390,-47466.500,-29295.690,-36640.070,-33513.850,-116736.700,0.000
-32637.540,-33205.900,-33850.410,-47342.490,-29252.620,-36585.960,-33462.510,-116577.800,0.000
-32592.190,-33163.520,-33802.890,-47179.630,-29212.010,-36538.270,-33412.100,-116419.100,0.000
-32548.650,-33121.590,-33763.020,-47072.070,-29178.450,-36490.630,-33376.180,-116261.400,0.000
-32500.450,-33070.730,-33707.050,-46925.350,-29131.250,-36437.070,-33323.570,-116101.100,0.000
-32456.330,-33021.890,-33661.660,-46808.940,-29090.880,-36382.770,-33283.450,-115941.600,0.000
-32411.390,-32972.290,-33613.660,-46728.340,-29049.200,-36327.050,-33237.650,-115782.900,0.000
-32361.540,-32919.760,-33557.830,-46596.910,-29000.820,-36270.110,-33182.130,-115621.600,0.000
-32311.740,-32869.960,-33510.080,-46511.960,-28959.950,-36216.090,-33139.130,-115461.200,0.000
-32261.840,-32820.760,-33453.670,-46387.250,-28913.720,-36163.950,-33082.640,-115301.600,0.000
-32216.140,-32778.400,-33411.320,-46290.230,-28879.280,-36116.340,-33042.500,-115143.400,0.000
-32171.870,-32738.290,-33369.450,-46230.440,-28846.650,-36072.910,-33004.210,-114984.700,0.000
-32129.660,-32696.700,-33323.530,-46121.180,-28808.520,-36028.480,-32958.700,-114823.600,0.000
-32089.420,-32653.660,-33284.840,-46049.120,-28774.530,-35979.840,-32921.040,-114663.100,0.000
-32044.730,-32604.250,-33232.090,-45927.230,-28729.490,-35927.050,-32866.270,-114501.200,0.000
-31998.760,-32554.020,-33185.520,-45827.490,-28688.000,-35872.450,-32821.320,-114339.300,0.000
-31952.140,-32503.890,-33135.600,-45763.440,-28644.320,-35818.500,-32771.890,-114178.200,0.000
-31908.700,-32459.200,-33084.080,-45649.020,-28600.020,-35770.000,-32717.170,-114017.900,0.000
-31863.750,-32416.270,-33039.130,-45564.280,-28561.010,-35721.340,-32671.570,-113858.100,0.000
-31813.530,-32367.960,-32981.710,-45425.960,-28511.970,-35669.800,-32611.910,-113695.000,0.000
-31771.050,-32326.490,-32941.220,-45317.240,-28477.010,-35623.960,-32573.650,-113532.500,0.000
-31726.780,-32281.280,-32896.540,-45247.480,-28439.390,-35574.660,-32531.460,-113369.900,0.000
-31674.300,-32226.070,-32837.000,-45116.500,-28387.560,-35515.240,-32470.710,-113205.100,0.000
-31622.990,-32171.700,-32783.740,-45006.500,-28340.240,-35454.400,-32415.840,-113042.300,0.000
-31576.040,-32120.950,-32725.730,-44845.750,-28290.700,-35398.730,-32351.940,-112879.100,0.000
-31536.120,-32079.300,-32685.080,-44718.980,-28256.500,-35351.720,-32311.690,-112715.300,0.000
-31491.810,-32034.660,-32641.070,-44644.880,-28221.210,-35304.240,-32272.760,-112552.400,0.000
-31441.810,-31983.450,-32586.820,-44526.090,-28175.410,-35250.020,-32220.970,-112389.600,0.000
-31392.750,-31933.970,-32540.010,-44435.400,-28133.980,-35194.250,-32177.100,-112227.100,0.000
-31342.190,-31884.050,-32483.720,-44307.380,-28086.480,-35139.930,-32124.030,-112063.200,0.000
-31293.400,-31837.360,-32437.870,-44230.040,-28048.870,-35086.820,-32089.300,-111901.400,0.000
-31243.460,-31789.310,-32389.650,-44215.600,-28010.760,-35032.360,-32052.820,-111741.800,0.000
-31196.130,-31742.850,-32339.480,-44160.910,-27969.470,-34980.130,-32007.120,-111581.400,0.000
-31153.350,-31700.630,-32300.370,-44133.200,-27936.100,-34930.130,-31969.850,-111421.600,0.000
-31107.460,-31653.740,-32248.370,-44059.980,-27892.580,-34876.410,-31916.770,-111261.600,0.000
-31060.890,-31606.120,-32202.300,-44016.630,-27852.980,-34820.510,-31875.960,-111103.200,0.000
-31009.860,-31553.120,-32149.710,-44014.290,-27808.290,-34761.500,-31830.660,-110943.900,0.000
-30957.710,-31497.010,-32090.870,-43960.000,-27757.440,-34701.300,-31774.180,-110781.200,0.000
-30911.510,-31447.830,-32045.660,-43933.540,-27718.910,-34647.140,-31731.700,-110619.800,0.000
-30866.130,-31402.030,-31995.230,-43868.930,-27678.480,-34598.020,-31682.800,-110459.900,0.000
-30818.080,-31356.780,-31951.960,-43830.400,-27641.620,-34545.660,-31643.870,-110301.700,0.000
-30760.560,-31301.970,-31898.150,-43828.630,-27595.030,-34483.840,-31594.180,-110142.800,0.000
-30701.430,-31243.070,-31837.390,-43785.780,-27543.220,-34421.800,-31535.810,-109982.200,0.000
-30648.630,-31188.790,-31788.730,-43780.160,-27501.980,-34364.470,-31490.920,-109822.500,0.000
-30596.430,-31133.620,-31730.110,-43731.890,-27452.600,-34306.920,-31433.310,-109660.800,0.000
-30547.940,-31083.310,-31680.580,-43696.770,-27409.740,-34251.830,-31387.910,-109498.800,0.000
-30500.040,-31034.170,-31629.180,-43684.700,-27366.590,-34197.050,-31338.870,-109337.600,0.000
-30452.110,-30984.990,-31573.200,-43615.700,-27318.040,-34141.040,-31279.160,-109175.200,0.000
-30402.180,-30935.940,-31524.120,-43565.500,-27272.990,-34084.250,-31226.050,-109011.800,0.000
-30345.860,-30881.030,-31462.270,-43453.380,-27218.050,-34025.500,-31157.850,-108846.500,0.000
-30290.620,-30826.330,-31407.780,-43324.900,-27168.210,-33965.550,-31099.350,-108682.900,0.000
-30233.600,-30768.360,-31347.810,-43188.850,-27113.890,-33902.220,-31035.140,-108518.800,0.000
-30177.510,-30710.600,-31284.140,-42988.010,-27056.080,-33840.670,-30965.740,-108351.900,0.000
-30125.410,-30657.420,-31232.830,-42820.500,-27008.410,-33782.800,-30911.440,-108184.600,0.000
-30072.250,-30602.790,-31171.880,-42610.350,-26954.450,-33724.570,-30845.770,-108015.800,0.000
-30022.400,-30550.800,-31119.300,-42402.070,-26907.540,-33664.560,-30791.030,-107847.800,0.000
-29974.470,-30499.450,-31066.700,-42215.840,-26862.500,-33605.570,-30737.110,-107681.500,0.000
-29931.430,-30453.990,-31016.960,-42004.430,-26821.060,-33558.270,-30686.050,-107516.400,0.000
-29890.080,-30412.450,-30978.200,-41858.330,-26788.820,-33514.500,-30649.770,-107352.900,0.000
-29840.700,-30362.480,-30922.860,-41682.320,-26743.010,-33461.790,-30594.930,-107187.100,0.000
-29788.720,-30310.840,-30871.400,-41502.780,-26698.320,-33405.340,-30544.740,-107019.700,0.000
-29733.170,-30256.660,-30816.460,-41338.450,-26650.740,-33346.100,-30489.690,-106851.300,0.000
-29678.680,-30203.960,-30760.450,-41155.190,-26603.250,-33288.130,-30432.860,-106682.700,0.000
-29630.880,-30158.440,-30719.210,-41057.390,-26569.820,-33236.040,-30395.530,-106517.600,0.000
-29584.420,-30112.310,-30669.650,-40949.630,-26530.940,-33186.610,-30348.880,-106353.200,0.000
-29540.450,-30067.060,-30625.740,-40842.600,-26494.680,-33138.030,-30309.610,-106187.800,0.000
