EEG 1, EEG 2, EEG 3, EEG 4, EEG 5, EEG 6, EEG 7, EEG 8, TRIG
50828.690,51797.870,54807.280,146475.600,45893.940,57771.000,52386.960,146475.600,0.000
168134.900,171332.600,180867.800,487151.300,151839.300,191055.200,173266.300,487151.300,0.000
251064.900,255817.700,269042.300,734571.100,226804.200,285169.100,258666.500,734571.100,0.000
270087.500,275169.300,288096.100,801303.100,244108.400,306588.300,278196.600,801303.100,0.000
271704.400,276790.700,288743.200,817789.300,245702.800,308241.500,279818.900,817789.300,0.000
259390.400,264223.500,274679.800,793229.100,234701.800,294095.800,267093.600,793229.100,0.000
234247.800,238589.100,247095.500,730188.300,212095.800,265395.800,241153.700,730188.300,0.000
219337.800,223384.700,230849.000,694636.800,198696.300,248353.500,225753.000,694636.800,0.000
228541.900,232752.500,240721.900,727301.400,207054.000,258733.700,235207.300,727301.400,0.000
244279.500,248773.300,257528.500,778897.900,221318.800,276532.500,251405.200,778897.900,0.000
241446.800,245865.200,254186.500,777435.200,218816.700,273215.300,248456.000,777435.200,0.000
221429.100,225448.700,232411.300,725877.100,200795.300,250374.300,227803.000,725877.100,0.000
208325.100,212086.000,218290.100,692829.800,189000.200,235419.500,214277.800,692829.800,0.000
215186.700,219072.900,225765.800,716399.200,195222.300,243172.400,221332.600,716399.200,0.000
227789.800,231909.900,239320.700,756732.600,206635.900,257445.400,234309.500,756732.600,0.000
225926.400,230003.800,237156.500,755871.400,204989.000,255271.700,232368.700,755871.400,0.000
210534.700,214312.500,220464.500,715684.700,191127.600,237728.500,216496.100,715684.700,0.000
200289.500,203867.500,209462.800,689324.900,181899.900,226052.000,205930.200,689324.900,0.000
205282.500,208951.100,214936.700,706219.100,186422.400,231700.500,211067.500,706068.900,0.000
214734.400,218577.600,225130.400,734693.800,194979.000,242408.800,220802.100,735022.400,0.000
213375.600,217187.500,223573.900,726951.800,193777.900,240826.500,219387.800,731954.200,0.000
201867.500,205457.800,211117.700,682591.600,183415.800,227713.500,207523.300,698749.400,0.000
194046.900,197489.100,202737.500,644465.300,176374.000,218806.600,199461.600,675352.900,0.000
197355.000,200862.300,206387.000,637749.900,179374.100,222556.500,202870.000,683633.500,0.000
203984.500,207618.500,213552.600,641981.900,185377.400,230075.200,209702.500,701977.900,0.000
202947.200,206558.300,212378.500,626627.600,184456.800,228870.400,208621.900,698963.300,0.000
194685.000,198134.000,203443.300,592576.600,177014.400,219451.300,200101.000,675203.900,0.000
188898.400,192233.500,197245.400,565994.800,171800.300,212859.400,194132.600,657993.600,0.000
190765.600,194132.300,199320.800,560662.500,173490.300,214970.100,196049.900,662422.000,0.000
194982.300,198424.200,203887.700,562151.300,177304.800,219740.300,200388.600,673931.000,0.000
194147.400,197569.200,202958.000,550569.700,176558.800,218769.700,199515.500,671416.800,0.000
188517.500,191831.100,196880.600,526819.700,171490.300,212356.400,193713.500,655175.300,0.000
184383.300,187618.500,192459.100,507739.500,167769.500,207649.900,189456.000,642866.100,0.000
185074.300,188324.000,193252.800,501923.900,168401.700,208430.900,190170.300,644164.400,0.000
187318.300,190612.900,195696.400,500490.100,170439.000,210976.300,192485.300,650124.900,0.000
186611.900,189892.500,194924.700,491552.700,169807.700,210163.700,191748.000,647922.600,0.000
183074.800,186284.200,191113.600,475687.100,166621.900,206125.400,188098.600,637629.800,0.000
180276.100,183429.100,188120.800,462280.600,164100.300,202930.000,185211.800,629226.800,0.000
180062.200,183211.000,187922.500,455864.400,163911.100,202680.200,184989.900,628016.300,0.000
180754.200,183916.400,188690.900,451926.400,164542.100,203461.900,185703.400,629407.300,0.000
180121.900,183269.300,188011.500,444820.700,163972.700,202736.400,185043.500,627065.800,0.000
178184.500,181291.200,185935.100,434863.000,162230.100,200523.000,183048.000,620933.900,0.000
176418.200,179489.300,184052.300,425719.700,160642.900,198506.200,181230.200,615163.600,0.000
175535.100,178589.500,183124.000,418824.000,159849.700,197495.400,180318.800,611855.500,0.000
175054.100,178099.300,182629.000,412952.000,159419.000,196942.900,179821.900,609791.200,0.000
174451.900,177485.000,181994.600,407123.400,158875.500,196256.900,179195.200,607497.000,0.000
173685.000,176705.700,181189.400,401470.600,158190.500,195383.300,178409.800,604780.800,0.000
172688.900,175693.800,180133.100,395464.100,157297.900,194249.700,177387.700,601365.800,0.000
171341.100,174320.900,178694.000,388284.800,156082.700,192713.400,175996.600,596859.100,0.000
170025.700,172978.900,177296.800,381070.600,154895.800,191210.100,174636.400,592445.600,0.000
169446.200,172384.000,176690.400,376157.300,154366.700,190542.000,174024.100,590176.100,0.000
169515.300,172447.500,176785.600,373551.900,154425.900,190607.300,174086.300,589824.100,0.000
169081.500,171998.100,176327.300,369811.400,154031.000,190104.300,173632.100,588078.000,0.000
167431.600,170313.000,174555.700,362561.500,152539.500,188226.800,171928.700,582835.000,0.000
165537.400,168383.500,172537.100,354527.800,150832.400,186075.400,169982.200,576874.500,0.000
164938.000,167774.300,171919.000,350257.900,150291.000,185396.100,169365.100,574595.100,0.000
165532.200,168379.700,172587.400,349692.500,150830.800,186070.500,169982.700,575774.200,0.000
165474.500,168319.000,172534.700,347536.400,150780.400,186000.700,169922.800,575159.100,0.000
163677.700,166486.300,170601.500,340440.200,149157.000,183950.100,168065.000,569548.400,0.000
161465.000,164232.300,168238.500,332089.100,147160.800,181430.600,165783.000,562687.300,0.000
160867.200,163625.800,167623.900,328335.700,146618.700,180755.000,165162.000,560394.300,0.000
161774.500,164552.500,168632.200,329081.900,147438.800,181787.500,166100.100,562468.400,0.000
161951.800,164733.800,168834.000,328008.200,147599.900,181989.200,166287.500,562573.400,0.000
160103.500,162850.800,166846.000,321243.500,145932.200,179891.300,164388.400,556897.100,0.000
157730.700,160433.400,164311.100,312945.800,143792.600,177199.200,161950.700,549651.600,0.000
157111.000,159801.900,163673.400,309579.000,143229.300,176501.400,161309.300,547341.800,0.000
158145.300,160855.600,164817.900,311039.900,144162.200,177679.700,162377.800,549806.100,0.000
158444.700,161160.400,165150.300,310630.800,144433.100,178022.100,162690.200,550285.700,0.000
156630.300,159312.800,163198.000,304314.900,142796.300,175964.200,160825.600,544736.000,0.000
154243.600,156883.000,160647.000,296358.200,140643.300,173256.500,158373.400,537475.200,0.000
153613.300,156240.600,159996.000,293308.200,140067.500,172543.000,157718.100,535149.600,0.000
154653.100,157297.500,161144.900,295067.000,141000.600,173720.500,158785.400,537643.100,0.000
154995.300,157642.300,161521.900,295025.000,141304.200,174104.900,159133.900,538259.500,0.000
153276.900,155888.400,159670.700,289234.300,139748.400,172151.200,157362.000,532995.100,0.000
150978.600,153548.000,157213.600,281804.300,137674.200,169543.500,154999.600,525998.200,0.000
150335.600,152897.600,156550.300,278991.500,137091.200,168821.900,154337.000,523651.300,0.000
151281.100,153865.600,157602.000,280723.600,137946.800,169903.700,155318.300,525887.100,0.000
151592.200,154185.500,157951.300,280809.000,138230.000,170264.700,155645.200,526417.300,0.000
149987.700,152551.600,156228.100,275563.200,136781.400,168447.100,153994.100,521474.700,0.000
147833.800,150356.000,153928.600,268773.400,134837.200,166002.500,151777.300,514877.600,0.000
147190.000,149697.800,153262.200,266168.300,134250.800,165274.300,151108.700,512498.100,0.000
148004.200,150526.900,154168.600,267694.100,134984.200,166198.100,151949.800,514309.700,0.000
148268.200,150797.600,154464.000,267774.400,135221.000,166497.300,152223.200,514642.100,0.000
146819.100,149323.400,152904.900,263094.600,133909.800,164853.500,150729.000,510082.000,0.000
144857.100,147325.100,150807.900,257004.000,132136.300,162627.000,148708.800,503995.300,0.000
144206.400,146661.500,150130.800,254559.200,131540.700,161892.500,148031.800,501583.900,0.000
144840.400,147307.100,150841.500,255741.800,132108.700,162616.300,148683.400,502870.900,0.000
145016.100,147484.300,151041.600,255706.300,132263.900,162816.600,148860.200,502922.900,0.000
143715.600,146156.300,149643.300,251566.500,131085.800,161335.500,147514.500,498749.100,0.000
141958.400,144365.400,147768.400,246191.000,129499.000,159336.100,145706.000,493225.100,0.000
141309.700,143706.500,147093.800,243902.300,128909.200,158603.100,145036.700,490813.500,0.000
141759.200,144168.200,147605.000,244704.400,129313.900,159120.700,145504.600,491568.500,0.000
141830.100,144242.700,147693.400,244505.600,129375.000,159208.400,145579.500,491328.800,0.000
140658.300,143047.600,146436.700,240868.700,128312.600,157880.400,144373.300,487561.700,0.000
139096.300,141454.300,144773.300,236184.600,126902.100,156107.100,142772.200,482653.700,0.000
138448.100,140793.200,144099.900,234032.100,126314.400,155374.700,142107.500,480304.600,0.000
138711.800,141061.800,144412.500,234432.100,126552.700,155676.600,142384.000,480584.500,0.000
138680.000,141029.000,144392.000,234041.500,126520.000,155641.700,142347.600,480091.400,0.000
137644.000,139972.400,143281.700,230863.500,125576.300,154463.600,141271.700,476734.600,0.000
136283.000,138584.000,141832.600,226822.500,124342.500,152915.900,139869.900,472425.400,0.000
135644.300,137932.000,141164.000,224782.900,123759.100,152193.900,139211.200,470136.600,0.000
135737.500,138027.900,141287.700,224780.300,123841.100,152304.200,139312.300,469945.600,0.000
135608.400,137897.900,141162.500,224175.800,123722.300,152163.000,139180.000,469160.100,0.000
134694.400,136966.300,140187.300,221389.300,122892.400,151126.600,138233.600,466116.000,0.000
133519.800,135768.300,138940.100,217918.200,121828.200,149789.700,137021.200,462290.200,0.000
132893.300,135129.400,138282.400,215968.500,121255.300,149079.400,136370.400,459981.800,0.000
132829.000,135065.400,138235.500,215590.700,121195.600,149011.800,136308.100,459287.100,0.000
132603.300,134838.500,138007.600,214786.100,120990.900,148767.700,136079.200,458171.400,0.000
131784.000,134006.900,137136.500,212344.400,120248.000,147849.100,135236.300,455352.900,0.000
130758.400,132962.800,136050.800,209379.700,119319.000,146685.000,134183.100,451925.600,0.000
130133.700,132324.600,135395.200,207519.300,118746.900,145973.100,133535.900,449600.500,0.000
129932.900,132118.900,135201.400,206830.100,118562.200,145746.100,133331.300,448481.400,0.000
129627.300,131807.200,134888.000,205868.700,118283.900,145404.100,133017.100,447094.800,0.000
128893.700,131060.200,134111.000,203742.900,117618.900,144576.800,132261.000,444493.600,0.000
128003.500,130155.400,133173.900,201237.500,116816.700,143573.300,131350.600,441450.300,0.000
127387.800,129532.300,132530.700,199478.800,116259.600,142887.500,130720.500,439163.100,0.000
127068.900,129211.800,132210.600,198528.700,115971.400,142536.600,130399.100,437714.900,0.000
126687.500,128825.600,131815.800,197412.200,115622.400,142109.100,130005.300,436100.600,0.000
126027.800,128153.800,131116.500,195526.900,115018.200,141360.400,129318.800,433669.000,0.000
125262.500,127375.300,130309.500,193388.200,114321.700,140491.600,128527.600,430924.200,0.000
124664.200,126768.400,129680.100,191695.500,113773.000,139818.200,127904.400,428633.700,0.000
124251.500,126350.200,129257.700,190512.600,113395.600,139356.100,127480.400,426883.600,0.000
123803.300,125893.300,128793.800,189251.300,112986.200,138854.500,127020.600,425060.200,0.000
123185.200,125261.600,128144.000,187534.600,112422.500,138160.500,126385.300,422742.800,0.000
122498.400,124558.500,127424.700,185665.200,111798.800,137385.600,125681.400,420226.800,0.000
121906.200,123950.500,126800.600,184010.800,111254.400,136715.300,125064.400,417947.900,0.000
121427.400,123459.900,126302.100,182643.000,110813.900,136170.700,124567.800,415984.300,0.000
120941.000,122964.500,125793.300,181285.200,110366.300,135620.600,124063.400,414025.100,0.000
120371.300,122386.200,125195.500,179741.600,109844.300,134979.500,123474.800,411838.300,0.000
119757.000,121763.500,124555.200,178129.400,109286.600,134289.000,122845.500,409546.900,0.000
119170.900,121169.700,123937.800,176534.500,108750.200,133633.100,122238.000,407313.500,0.000
118638.100,120629.700,123383.200,175040.700,108265.400,133035.300,121692.300,405217.400,0.000
118117.500,120100.600,122842.500,173621.000,107793.200,132451.600,121161.700,403188.100,0.000
117579.900,119553.600,122283.900,172217.800,107305.900,131849.300,120614.200,401138.700,0.000
117025.500,118989.500,121708.300,170812.800,106803.400,131226.100,120048.500,399089.400,0.000
116455.500,118409.100,121105.400,169278.300,106278.300,130585.500,119453.700,397001.800,0.000
115886.300,117830.200,120509.800,167704.000,105757.500,129946.200,118866.800,394914.100,0.000
115339.100,117274.800,119940.200,166247.500,105259.300,129334.100,118307.500,392963.200,0.000
114820.700,116748.000,119401.800,164943.600,104786.900,128750.600,117779.500,391198.000,0.000
114294.000,116211.200,118856.100,163673.200,104307.400,128156.200,117244.200,389454.900,0.000
113718.700,115623.500,118248.300,162174.700,103777.100,127511.600,116646.000,387505.800,0.000
113118.900,115011.400,117621.800,160552.000,103229.500,126837.600,116027.500,385442.300,0.000
112551.400,114433.500,117032.600,159074.600,102713.400,126199.400,115444.300,383486.500,0.000
112048.300,113921.900,116511.400,157842.800,102254.800,125634.100,114927.700,381718.600,0.000
111562.100,113428.300,116008.800,156697.400,101813.000,125087.900,114430.500,380010.000,0.000
111014.600,112871.600,115428.700,155283.000,101308.600,124472.300,113858.600,378093.800,0.000
110413.400,112258.800,114796.600,153681.200,100757.800,123792.100,113237.600,376016.900,0.000
109838.700,111672.400,114195.700,152215.500,100230.900,123142.800,112645.200,374056.100,0.000
109343.600,111166.900,113682.300,151031.500,99775.360,122584.400,112133.500,372329.600,0.000
108871.900,110685.600,113196.400,149955.000,99344.730,122052.500,111647.800,370674.900,0.000
108326.100,110129.600,112619.300,148571.000,98841.760,121440.200,111075.000,368790.200,0.000
107711.100,109505.100,111974.900,146953.000,98280.170,120750.700,110440.300,366703.300,0.000
107124.100,108911.200,111364.800,145476.000,97747.210,120097.200,109841.200,364740.500,0.000
106632.000,108413.600,110858.400,144328.800,97301.820,119552.300,109343.300,363075.800,0.000
106169.800,107944.200,110384.700,143319.600,96883.800,119037.100,108876.600,361504.300,0.000
105626.800,107389.500,109808.600,141964.700,96379.860,118427.000,108307.200,359680.400,0.000
105014.400,106762.400,109161.400,140336.800,95813.160,117732.100,107668.700,357638.500,0.000
104438.300,106172.400,108555.700,138857.000,95282.150,117078.300,107072.900,355716.100,0.000
103956.000,105680.300,108054.800,137719.400,94838.980,116534.500,106579.700,354106.200,0.000
103495.000,105214.400,107583.100,136725.900,94420.950,116020.500,106116.300,352601.100,0.000
102953.200,104669.800,107013.500,135398.200,93925.060,115423.000,105558.700,350832.200,0.000
102343.900,104057.800,106378.500,133810.100,93373.980,114750.400,104939.400,348846.500,0.000
101761.900,103470.400,105776.200,132352.500,92849.620,114107.400,104351.700,346953.800,0.000
101268.400,102968.300,105268.300,131205.500,92402.870,113561.100,103853.900,345301.200,0.000
100808.100,102497.600,104795.500,130209.500,91985.460,113047.300,103389.700,343754.500,0.000
100282.800,101959.700,104237.900,128915.100,91498.990,112453.800,102840.100,342030.300,0.000
99699.270,101363.100,103623.200,127388.900,90962.690,111787.500,102234.200,340152.600,0.000
99145.350,100798.800,103042.600,125979.000,90454.840,111159.300,101661.600,338354.000,0.000
98670.650,100318.000,102549.500,124839.300,90019.220,110626.800,101174.000,336735.000,0.000
98215.880,99859.910,102083.300,123843.200,89605.550,110119.200,100713.300,335188.500,0.000
97694.570,99332.440,101533.300,122575.500,89123.360,109538.400,100169.500,333465.700,0.000
97117.480,98744.190,100928.300,121099.800,88593.190,108890.400,99573.640,331563.600,0.000
96564.010,98178.580,100349.500,119726.700,88087.090,108270.100,99006.620,329733.500,0.000
96085.400,97690.240,99852.040,118590.800,87651.180,107735.700,98519.690,328157.100,0.000
95633.660,97230.300,99388.280,117597.500,87244.200,107229.500,98064.370,326694.400,0.000
95126.110,96714.520,98853.160,116362.500,86778.840,106663.700,97538.050,325015.000,0.000
94566.970,96147.560,98268.410,114948.000,86269.380,106040.000,96966.640,323149.700,0.000
94025.430,95598.340,97701.900,113619.800,85775.550,105435.400,96414.130,321347.800,0.000
93550.900,95116.410,97206.320,112480.700,85341.370,104904.000,95928.790,319748.900,0.000
93105.200,94664.180,96747.950,111476.400,84937.920,104403.300,95477.840,318275.500,0.000
92613.060,94164.880,96230.640,110270.200,84486.190,103852.100,94965.790,316638.800,0.000
92076.630,93620.700,95672.700,108926.200,83998.340,103248.400,94414.380,314838.200,0.000
91554.250,93090.560,95128.270,107656.900,83522.990,102660.300,93877.250,313076.800,0.000
91085.710,92614.510,94639.140,106524.000,83094.930,102133.500,93395.240,311469.000,0.000
90640.670,92163.520,94181.090,105508.800,82693.730,101634.900,92945.910,309979.700,0.000
90158.600,91676.430,93674.140,104323.200,82253.650,101099.300,92448.050,308368.600,0.000
89639.250,91150.910,93134.660,103028.900,81783.300,100518.500,91918.400,306628.600,0.000
89128.950,90632.090,92604.450,101790.700,81319.990,99945.140,91395.780,304921.800,0.000
88664.580,90157.940,92121.100,100642.700,80895.790,99421.680,90916.970,303331.700,0.000
88219.290,89702.720,91662.590,99600.450,80491.710,98917.400,90462.330,301835.200,0.000
87742.720,89216.140,91158.910,98423.020,80051.800,98380.090,89963.130,300233.500,0.000
87244.600,88710.120,90637.990,97178.210,79598.260,97819.080,89451.740,298538.300,0.000
86758.750,88219.160,90129.380,95979.660,79157.160,97274.630,88952.570,296872.500,0.000
86302.090,87757.410,89650.300,94822.860,78738.840,96763.130,88478.930,295279.500,0.000
85855.280,87302.600,89188.180,93765.080,78332.920,96260.550,88024.230,293765.400,0.000
85383.280,86819.150,88690.280,92618.900,77899.090,95730.170,87535.450,292184.100,0.000
84890.660,86315.020,88177.840,91446.980,77451.520,95173.480,87031.880,290549.300,0.000
84403.710,85818.910,87669.900,90313.540,77008.800,94624.700,86529.700,288943.900,0.000
83942.000,85349.920,87187.440,89188.660,76587.150,94106.450,86050.790,287388.800,0.000
83494.870,84897.310,86728.330,88163.680,76184.380,93606.320,85598.000,285913.000,0.000
83035.940,84432.560,86246.400,87090.770,75765.150,93095.200,85124.410,284401.500,0.000
82565.570,83953.270,85756.270,86028.450,75337.930,92562.630,84645.360,282863.600,0.000
82091.730,83468.130,85257.860,84994.730,74903.780,92023.220,84158.370,281342.200,0.000
81625.870,82991.090,84764.550,83934.340,74472.890,91496.460,83675.670,279833.400,0.000
81169.060,82524.810,84289.610,82974.800,74057.520,90982.650,83213.760,278386.100,0.000
80707.630,82054.770,83803.740,82008.950,73636.050,90467.200,82739.900,276916.300,0.000
80242.570,81581.810,83323.730,81093.450,73216.920,89944.220,82267.760,275440.200,0.000
79779.090,81112.690,82844.270,80216.620,72797.910,89423.650,81791.460,273982.300,0.000
79326.680,80657.260,82373.480,79308.590,72386.960,88918.260,81323.950,272525.400,0.000
78876.980,80204.880,81913.160,78506.850,71984.570,88414.640,80871.400,271122.200,0.000
78415.580,79736.980,81430.630,77717.200,71563.910,87896.630,80397.910,269704.000,0.000
77953.120,79263.560,80950.600,76996.270,71142.400,87372.830,79928.230,268294.300,0.000
77493.040,78790.050,80466.160,76306.300,70717.920,86850.960,79452.230,266899.900,0.000
77043.390,78326.410,79986.490,75563.040,70297.950,86338.110,78978.170,265487.400,0.000
76605.390,77876.180,79528.150,74928.480,69895.920,85835.910,78527.300,264126.200,0.000
76163.010,77423.820,79061.440,74324.340,69489.210,85335.230,78069.240,262764.800,0.000
75715.050,76969.130,78600.190,73795.970,69085.950,84832.580,77617.380,261421.900,0.000
75259.400,76510.270,78129.920,73284.010,68676.390,84326.610,77154.660,260090.200,0.000
74801.770,76050.720,77655.340,72688.130,68262.630,83820.440,76686.250,258724.300,0.000
74345.800,75593.200,77192.450,72175.520,67857.230,83314.800,76231.180,257393.000,0.000
73885.740,75131.430,76716.790,71686.690,67443.070,82806.500,75764.790,256056.300,0.000
73431.820,74673.470,76250.090,71281.410,67035.340,82300.380,75310.940,254744.100,0.000
72986.800,74219.790,75783.840,70895.860,66628.910,81799.560,74855.270,253447.300,0.000
72553.620,73773.880,75323.270,70424.320,66226.650,81306.680,74400.250,252112.500,0.000
72128.630,73335.660,74879.950,70044.950,65838.090,80820.060,73963.600,250807.700,0.000
71697.450,72892.390,74424.210,69707.340,65441.450,80331.390,73515.650,249494.000,0.000
71262.870,72446.770,73973.800,69472.800,65048.340,79839.330,73074.460,248202.100,0.000
70820.930,71995.910,73513.460,69269.790,64647.640,79342.770,72622.700,246917.000,0.000
70372.380,71542.190,73044.740,68980.080,64238.090,78843.940,72161.020,245580.100,0.000
69926.880,71094.630,72590.700,68788.670,63839.080,78349.360,71714.670,244276.800,0.000
69487.150,70652.230,72135.880,68655.550,63441.550,77858.770,71266.660,242988.700,0.000
69055.730,70216.990,71696.020,68633.400,63055.780,77371.630,70835.670,241743.000,0.000
68624.000,69780.930,71249.320,68641.850,62666.800,76888.000,70398.520,240515.400,0.000
68194.410,69342.710,70797.030,68567.870,62273.660,76405.070,69954.270,239247.600,0.000
67768.640,68902.340,70355.400,68591.340,61887.080,75916.730,69519.810,238017.900,0.000
67339.280,68456.210,69902.780,68655.070,61491.070,75424.490,69071.840,236798.000,0.000
66913.160,68016.800,69463.230,68822.070,61104.590,74939.730,68639.940,235625.300,0.000
66484.960,67581.700,69020.510,69026.130,60718.810,74461.940,68208.070,234486.700,0.000
66053.630,67147.710,68572.090,69142.840,60329.340,73983.880,67770.690,233316.200,0.000
65624.980,66716.060,68135.280,69347.340,59947.960,73502.790,67345.380,232188.300,0.000
65198.730,66283.910,67691.910,69582.860,59561.940,73024.010,66912.250,231079.900,0.000
64779.130,65856.190,67261.450,69897.410,59185.040,72551.570,66493.440,230024.600,0.000
64355.580,65422.270,66821.120,70211.070,58800.870,72074.050,66063.280,228996.200,0.000
63927.240,64982.050,66370.490,70406.390,58407.420,71589.610,65621.990,227927.900,0.000
63501.470,64546.250,65933.690,70672.550,58024.580,71107.830,65198.460,226909.300,0.000
63077.030,64114.990,65493.430,70952.290,57641.150,70632.590,64771.380,225921.000,0.000
62658.090,63691.750,65067.160,71293.650,57268.800,70163.770,64359.820,224993.000,0.000
62237.860,63268.330,64634.800,71631.730,56893.910,69696.120,63943.130,224104.100,0.000
61818.440,62845.680,64198.520,71858.860,56516.560,69229.300,63522.130,223194.100,0.000
61404.670,62427.890,63777.610,72156.460,56150.710,68765.200,63118.280,222345.300,0.000
60991.020,62007.650,63348.320,72455.350,55777.700,68302.290,62703.640,221523.300,0.000
60581.400,61588.070,62928.840,72804.580,55410.110,67839.320,62297.390,220756.400,0.000
60169.850,61163.970,62501.580,73141.460,55037.730,67371.730,61882.530,220029.000,0.000
59756.030,60738.360,62067.040,73347.280,54659.260,66902.070,61460.190,219281.500,0.000
59345.230,60318.860,61645.200,73587.340,54289.650,66437.230,61051.650,218593.400,0.000
58936.550,59902.470,61217.020,73782.880,53916.140,65978.270,60634.070,217921.000,0.000
58532.270,59491.300,60801.530,73991.480,53552.330,65519.840,60230.600,217298.000,0.000
58121.590,59075.460,60377.380,74163.040,53184.150,65055.880,59820.290,216728.200,0.000
57706.290,58654.770,59944.070,74182.770,52809.200,64591.300,59400.360,216165.500,0.000
57296.080,58238.290,59524.750,74219.450,52444.020,64131.890,58994.330,215680.600,0.000
56891.670,57828.700,59102.880,74188.150,52078.030,63681.700,58582.920,215183.900,0.000
56495.570,57428.590,58695.460,74128.310,51722.900,63239.730,58187.320,214668.200,0.000
56095.110,57021.330,58276.010,73978.160,51357.640,62791.270,57778.740,214095.500,0.000
55689.750,56605.480,57843.950,73624.840,50980.250,62333.180,57354.340,213235.500,0.000
55288.710,56193.600,57426.320,73252.860,50613.560,61874.730,56944.450,212091.300,0.000
54890.320,55784.980,57005.000,72800.120,50244.760,61421.520,56529.340,210853.000,0.000
54495.070,55381.110,56595.770,72332.140,49884.460,60974.860,56129.980,209611.900,0.000
54093.640,54974.590,56177.630,71816.420,49519.500,60528.450,55724.070,208249.300,0.000
53688.930,54567.810,55752.860,71162.230,49150.590,60081.590,55311.300,206669.200,0.000
53288.260,54165.750,55343.260,70558.960,48794.270,59637.000,54915.200,205045.100,0.000
52891.680,53766.080,54929.790,69931.110,48436.080,59197.340,54511.610,203602.300,0.000
52505.040,53373.640,54533.090,69332.300,48088.330,58764.200,54122.850,202320.400,0.000
52116.570,52975.640,54129.250,68726.450,47733.360,58325.700,53724.510,200978.800,0.000
51725.740,52572.770,53717.000,68013.460,47371.110,57880.100,53316.500,199467.800,0.000
51338.690,52175.030,53319.120,67374.800,47020.700,57436.290,52924.680,197917.400,0.000
50948.950,51777.600,52911.770,66734.720,46664.450,56996.540,52522.130,196486.800,0.000
50560.300,51384.570,52514.260,66149.230,46315.980,56560.910,52133.220,195163.300,0.000
50169.210,50991.180,52111.520,65586.440,45965.270,56125.660,51740.120,193805.000,0.000
49777.770,50598.340,51704.590,64933.740,45611.410,55693.470,51341.940,192344.000,0.000
49388.860,50206.770,51309.870,64351.540,45266.640,55260.520,50958.820,190861.800,0.000
48997.360,49808.110,50901.720,63761.520,44911.360,54820.020,50560.520,189451.100,0.000
48609.930,49412.550,50503.560,63220.730,44563.130,54383.010,50174.090,188102.300,0.000
48223.180,49020.290,50102.550,62689.130,44214.800,53952.680,49786.430,186734.800,0.000
47836.330,48629.070,49696.690,62047.960,43862.060,53523.540,49394.110,185314.500,0.000
47451.240,48238.870,49301.940,61456.180,43515.530,53092.020,49012.290,183888.300,0.000
47067.800,47848.390,48898.250,60822.190,43162.050,52662.590,48614.060,182497.200,0.000
46694.840,47467.630,48509.900,60176.310,42820.720,52242.820,48228.710,181131.300,0.000
46323.440,47089.160,48118.680,59466.550,42477.520,51823.270,47835.360,179756.800,0.000
45949.880,46708.760,47720.870,58584.640,42126.570,51399.480,47428.240,178367.800,0.000
45576.630,46327.270,47333.020,57713.240,41780.320,50974.720,47028.860,176983.400,0.000
45202.080,45943.480,46934.800,56797.710,41424.930,50551.770,46614.290,175603.900,0.000
44833.730,45568.160,46551.710,55908.700,41081.940,50136.320,46218.360,174223.900,0.000
44464.510,45194.020,46165.510,55018.480,40740.060,49723.360,45824.100,172848.000,0.000
44093.850,44818.040,45771.410,54010.520,40392.590,49309.980,45423.290,171487.200,0.000
43723.500,44440.840,45386.270,53046.540,40051.020,48895.020,45033.230,170136.700,0.000
43349.340,44059.250,44989.750,52064.100,39700.800,48478.450,44629.120,168770.400,0.000
42982.360,43687.260,44609.490,51127.760,39364.550,48069.160,44245.850,167388.100,0.000
42619.300,43320.380,44230.110,50203.340,39032.630,47664.860,43866.900,166018.300,0.000
42257.320,42953.300,43845.820,49169.330,38697.300,47260.290,43482.040,164682.900,0.000
41896.290,42585.270,43471.690,48185.680,38367.960,46852.180,43107.230,163364.600,0.000
41531.210,42210.160,43084.730,47192.060,38026.800,46438.490,42714.140,162018.800,0.000
41171.140,41839.820,42710.680,46244.940,37694.590,46026.020,42334.050,160644.300,0.000
40813.300,41473.880,42335.340,45303.100,37363.710,45617.140,41953.550,159285.700,0.000
40455.370,41109.620,41952.880,44241.620,37028.080,45213.590,41567.530,157972.900,0.000
40100.200,40749.370,41582.640,43223.860,36702.070,44816.880,41198.060,156682.200,0.000
39745.880,40389.290,41205.800,42201.300,36371.390,44421.140,40820.040,155359.600,0.000
39395.760,40032.620,40840.860,41226.170,36049.370,44023.840,40457.160,154002.000,0.000
39042.600,39672.150,40469.840,40260.730,35723.940,43626.950,40089.680,152659.700,0.000
38687.100,39308.330,40091.580,39198.390,35392.640,43231.190,39713.890,151367.100,0.000
38332.520,38945.480,39725.080,38208.210,35070.360,42833.180,39352.190,150095.800,0.000
37975.340,38580.430,39348.610,37239.690,34741.340,42433.200,38977.660,148787.300,0.000
37620.860,38220.040,38982.670,36342.370,34420.570,42035.170,38614.640,147440.900,0.000
37264.610,37860.240,38613.280,35485.320,34098.660,41637.790,38248.200,146114.200,0.000
36910.280,37503.650,38241.850,34565.340,33775.390,41245.110,37881.270,144844.600,0.000
36563.510,37153.930,37887.110,33735.480,33464.620,40859.000,37536.070,143600.400,0.000
36218.390,36802.780,37523.220,32925.120,33146.040,40473.940,37178.520,142318.800,0.000
35877.730,36453.800,37168.950,32172.960,32833.130,40087.190,36829.780,140998.300,0.000
35536.580,36102.360,36811.090,31450.950,32517.440,39694.420,36473.270,139695.700,0.000
35195.510,35750.950,36449.450,30652.380,32199.510,39300.710,36110.730,138446.200,0.000
34856.880,35404.770,36102.830,29921.790,31895.770,38913.380,35769.660,137220.500,0.000
34513.270,35055.020,35745.590,29193.880,31584.910,38528.330,35417.700,135960.000,0.000
34168.610,34706.170,35394.540,28510.760,31277.410,38144.210,35073.580,134663.000,0.000
33823.280,34357.970,35037.460,27848.340,30965.560,37761.400,34723.070,133382.100,0.000
33481.630,34012.000,34676.280,27105.710,30649.330,37381.250,34367.130,132149.200,0.000
33145.730,33670.020,34330.260,26424.270,30344.050,37002.790,34028.650,130936.600,0.000
32809.200,33326.290,33975.700,25737.940,30032.540,36623.090,33677.220,129692.900,0.000
32475.470,32986.590,33630.930,25090.900,29728.050,36244.640,33335.530,128419.100,0.000
32139.300,32645.770,33281.470,24466.320,29421.240,35868.960,32988.550,127160.300,0.000
31801.140,32304.660,32926.350,23768.880,29111.170,35497.090,32636.060,125943.900,0.000
31464.350,31967.830,32583.990,23132.150,28812.640,35123.430,32302.880,124746.500,0.000
31126.680,31630.820,32232.590,22481.690,28508.930,34747.870,31961.180,123521.900,0.000
30795.790,31299.350,31893.660,21861.340,28214.650,34379.990,31633.290,122270.600,0.000
30466.030,30964.850,31551.650,21264.430,27916.970,34013.790,31298.680,121033.000,0.000
30133.590,30624.100,31200.660,20596.840,27609.470,33642.800,30950.730,119832.000,0.000
29800.170,30282.830,30858.690,19980.800,27307.990,33267.750,30614.040,118646.400,0.000
29465.130,29941.060,30507.070,19341.590,27000.050,32891.610,30265.960,117438.000,0.000
29137.780,29608.430,30168.280,18727.030,26702.020,32521.890,29933.220,116208.400,0.000
28809.850,29274.560,29824.560,18132.810,26399.570,32151.910,29593.960,114990.600,0.000
28473.810,28931.740,29468.090,17467.150,26085.170,31775.650,29239.250,113801.700,0.000
28137.010,28589.790,29122.210,16854.530,25780.180,31400.620,28899.930,112627.300,0.000
27803.610,28250.370,28771.570,16217.050,25474.640,31030.070,28555.330,111436.800,0.000
27477.370,27917.640,28434.850,15593.250,25180.060,30663.100,28225.020,110229.500,0.000
27152.380,27586.820,28098.290,14991.560,24884.610,30296.920,27890.380,109031.700,0.000
26831.840,27260.800,27760.840,14340.960,24587.220,29934.500,27551.150,107860.600,0.000
26515.750,26941.290,27435.980,13754.820,24301.210,29577.350,27230.670,106703.300,0.000
26192.010,26615.340,27095.340,13133.070,24003.900,29219.340,26896.530,105531.100,0.000
25866.520,26287.490,26760.580,12516.720,23709.230,28860.060,26571.160,104344.800,0.000
25544.420,25961.040,26426.700,11932.750,23416.460,28502.030,26244.260,103167.700,0.000
25228.850,25639.410,26093.250,11307.780,23125.970,28147.980,25913.510,102012.300,0.000
24914.180,25319.100,25769.360,10735.730,22843.690,27792.380,25594.780,100867.400,0.000
24591.490,24991.370,25428.930,10118.520,22547.820,27432.890,25259.900,99711.420,0.000
24270.780,24666.850,25098.100,9511.656,22257.440,27077.560,24938.680,98546.490,0.000
23952.120,24343.380,24767.820,8944.716,21967.180,26723.140,24615.810,97389.220,0.000
23637.140,24022.210,24435.140,8337.847,21673.620,26368.480,24284.370,96247.880,0.000
23330.020,23710.020,24118.520,7784.492,21392.610,26018.670,23969.860,95116.700,0.000
23024.480,23399.410,23794.580,7184.732,21108.270,25673.110,23647.440,93978.860,0.000
22720.490,23089.410,23478.910,6582.966,20830.990,25328.660,23335.550,92834.380,0.000
22413.170,22774.240,23158.190,6012.229,20550.690,24981.960,23017.020,91696.760,0.000
22105.880,22460.000,22833.140,5402.229,20267.170,24638.170,22693.040,90572.210,0.000
21801.050,22152.650,22520.780,4837.317,19994.210,24299.280,22386.700,89454.400,0.000
21492.190,21842.200,22195.570,4206.811,19711.690,23960.680,22066.090,88331.300,0.000
21186.700,21532.450,21878.350,3559.659,19433.960,23619.230,21754.030,87206.210,0.000
20884.600,21223.030,21560.530,2940.882,19156.100,23274.000,21439.130,86087.330,0.000
20585.370,20917.290,21240.220,2284.048,18876.120,22935.550,21119.460,84976.270,0.000
20288.270,20616.420,20932.920,1674.590,18606.700,22604.780,20817.310,83871.770,0.000
19987.060,20310.540,20614.780,1009.974,18329.910,22271.380,20503.380,82767.380,0.000
19684.350,20003.570,20303.750,343.786,18057.140,21934.030,20197.190,81662.550,0.000
19377.120,19693.570,19988.230,-275.110,17779.070,21593.190,19883.920,80560.010,0.000
19075.100,19387.170,19671.820,-905.534,17497.900,21255.450,19564.800,79463.240,0.000
18786.150,19091.010,19374.110,-1462.021,17231.690,20924.480,19266.090,78374.230,0.000
18499.470,18794.760,19066.790,-2057.202,16961.010,20595.530,18959.290,77286.390,0.000
18213.640,18498.980,18766.580,-2646.458,16696.750,20267.620,18664.210,76200.020,0.000
17921.220,18197.290,18461.260,-3183.952,16428.350,19935.210,18361.890,75117.370,0.000
17622.520,17893.000,18148.250,-3734.615,16152.470,19599.460,18048.250,74038.980,0.000
17325.840,17595.210,17847.890,-4218.768,15887.060,19266.900,17751.610,72966.370,0.000
17031.170,17298.570,17539.730,-4747.589,15617.690,18938.400,17447.040,71895.080,0.000
16743.810,17008.010,17244.550,-5273.764,15358.460,18616.640,17156.850,70826.320,0.000
16459.160,16718.960,16951.460,-5746.541,15101.290,18298.380,16867.070,69761.890,0.000
16175.990,16428.450,16654.220,-6231.714,14840.420,17980.210,16570.800,68701.990,0.000
15890.670,16134.800,16361.180,-6662.189,14582.660,17656.910,16283.060,67646.950,0.000
15596.390,15832.930,16048.510,-7154.641,14310.380,17327.110,15975.600,66592.230,0.000
15302.460,15534.380,15744.230,-7656.406,14044.030,16998.330,15676.990,65540.360,0.000
15006.850,15235.570,15439.350,-8113.962,13776.560,16667.460,15374.890,64492.230,0.000
14716.450,14941.190,15134.820,-8587.991,13509.050,16341.410,15071.380,63447.240,0.000
14436.710,14658.890,14850.220,-8999.388,13258.970,16027.490,14792.540,62407.600,0.000
14152.940,14373.970,14553.250,-9464.318,12999.480,15713.620,14499.980,61369.680,0.000
13868.400,14088.250,14261.500,-9938.012,12740.990,15396.200,14212.270,60336.100,0.000
13586.680,13802.310,13971.040,-10365.120,12483.390,15080.400,13923.290,59307.280,0.000
13307.650,13514.880,13677.290,-10809.950,12223.700,14765.920,13629.240,58278.940,0.000
13030.060,13228.120,13392.370,-11198.100,11972.350,14447.080,13348.760,57253.310,0.000
12750.230,12941.420,13095.520,-11638.690,11714.660,14129.570,13056.760,56232.170,0.000
12474.880,12662.920,12809.810,-12088.070,11466.360,13821.750,12779.380,55217.340,0.000
12199.590,12385.980,12524.870,-12495.400,11218.640,13515.770,12502.440,54205.570,0.000
11923.960,12107.860,12236.160,-12922.290,10966.050,13208.350,12216.990,53193.980,0.000
11649.960,11829.770,11957.370,-13294.320,10719.440,12898.740,11940.400,52185.470,0.000
11373.150,11546.740,11665.450,-13723.780,10462.220,12585.680,11646.140,51179.770,0.000
11099.250,11267.410,11382.980,-14164.460,10211.880,12274.400,11362.430,50179.190,0.000
10823.000,10986.980,11098.390,-14561.860,9961.559,11963.980,11079.010,49182.540,0.000
10546.430,10706.490,10807.650,-14985.010,9707.493,11658.110,10792.300,48187.460,0.000
10276.160,10432.770,10529.370,-15371.440,9463.762,11359.890,10523.500,47196.070,0.000
10006.750,10159.050,10241.320,-15839.130,9212.634,11063.160,10240.680,46207.480,0.000
9742.766,9891.537,9965.727,-16337.240,8970.543,10768.860,9968.688,45224.340,0.000
9478.138,9624.201,9690.500,-16799.780,8730.155,10474.600,9698.792,44244.180,0.000
9207.752,9350.402,9405.538,-17283.790,8481.299,10174.590,9419.399,43262.890,0.000
8937.114,9075.673,9129.324,-17707.790,8237.675,9869.702,9148.149,42284.750,0.000
8668.981,8802.008,8846.472,-18177.120,7988.646,9566.494,8863.861,41310.950,0.000
8409.287,8537.002,8578.344,-18656.570,7749.854,9270.503,8594.104,40341.760,0.000
8149.799,8271.715,8310.315,-19099.180,7512.166,8975.342,8325.732,39374.300,0.000
7889.554,8004.692,8037.130,-19561.170,7272.182,8681.427,8052.942,38408.840,0.000
7630.627,7740.700,7773.364,-19962.590,7041.240,8391.169,7794.153,37450.540,0.000
7363.986,7469.599,7490.573,-20419.030,6795.775,8097.250,7516.327,36495.380,0.000
7096.288,7197.517,7211.554,-20889.400,6551.380,7799.587,7244.708,35542.400,0.000
6831.301,6928.857,6936.021,-21309.780,6310.268,7503.471,6976.645,34592.660,0.000
6573.236,6669.046,6664.822,-21735.840,6072.980,7217.183,6711.309,33644.920,0.000
6322.067,6417.573,6410.236,-22093.020,5848.518,6937.936,6463.307,32700.490,0.000
6068.227,6161.458,6143.171,-22492.730,5614.149,6655.520,6197.780,31758.960,0.000
5815.488,5904.986,5882.785,-22895.990,5384.378,6370.492,5940.127,30823.210,0.000
5560.618,5645.036,5620.033,-23252.950,5153.609,6082.441,5682.181,29890.850,0.000
5303.632,5382.583,5350.244,-23631.250,4916.691,5795.979,5416.963,28957.820,0.000
5050.123,5125.464,5092.416,-23952.360,4690.191,5516.918,5166.433,28028.130,0.000
4799.044,4870.002,4827.002,-24318.040,4459.635,5237.895,4904.147,27103.580,0.000
4554.469,4619.825,4573.709,-24690.210,4236.763,4956.104,4652.433,26186.520,0.000
4308.503,4367.771,4319.584,-25025.850,4012.786,4673.638,4399.545,25273.220,0.000
4060.536,4113.066,4058.332,-25394.360,3783.046,4391.958,4138.171,24359.060,0.000
3816.446,3862.575,3807.713,-25715.260,3561.922,4113.271,3889.506,23447.610,0.000
3568.986,3609.530,3543.391,-26093.690,3330.844,3837.267,3626.823,22537.520,0.000
3321.549,3359.321,3286.650,-26487.690,3105.055,3565.180,3375.763,21630.500,0.000
3074.533,3110.685,3032.026,-26839.670,2882.246,3291.727,3127.091,20728.180,0.000
2828.708,2861.952,2773.696,-27216.840,2656.638,3013.765,2871.531,19828.370,0.000
2587.579,2617.117,2528.337,-27541.740,2440.830,2737.133,2628.844,18932.610,0.000
2347.151,2371.338,2273.831,-27915.480,2217.775,2464.765,2372.234,18039.370,0.000
2109.152,2127.710,2027.146,-28302.440,1999.274,2195.976,2125.309,17149.310,0.000
1867.423,1880.951,1776.971,-28656.990,1778.682,1924.635,1877.800,16261.550,0.000
1621.625,1630.888,1517.762,-29044.950,1550.770,1649.514,1621.615,15374.810,0.000
1375.983,1381.927,1266.162,-29380.340,1328.466,1373.212,1376.252,14492.300,0.000
1129.607,1131.235,1003.290,-29759.550,1098.777,1098.630,1117.802,13613.600,0.000
893.076,890.213,756.451,-30145.040,883.561,835.191,878.077,12740.370,0.000
661.179,654.264,516.503,-30495.640,676.040,578.802,645.448,11869.900,0.000
423.434,412.929,268.116,-30889.300,459.121,316.391,399.594,10997.850,0.000
180.866,167.411,23.128,-31242.050,241.560,44.795,156.226,10128.000,0.000
-62.865,-80.272,-234.820,-31639.730,14.288,-228.418,-104.128,9261.727,0.000
-298.335,-319.902,-479.499,-32038.070,-201.732,-493.952,-349.285,8400.295,0.000
-532.224,-557.940,-721.655,-32393.480,-414.028,-756.848,-588.391,7542.699,0.000
-768.690,-798.393,-970.994,-32779.230,-632.119,-1020.739,-832.670,6687.692,0.000
-1003.723,-1037.008,-1211.120,-33109.800,-842.577,-1283.259,-1063.993,5836.727,0.000
-1238.724,-1277.198,-1461.893,-33479.590,-1060.118,-1544.801,-1310.021,4987.233,0.000
-1469.455,-1512.922,-1702.132,-33854.270,-1270.541,-1803.712,-1546.046,4141.332,0.000
-1703.380,-1750.620,-1943.687,-34193.360,-1482.186,-2063.901,-1782.640,3299.073,0.000
-1938.369,-1988.795,-2190.826,-34565.320,-1698.310,-2322.317,-2024.914,2458.624,0.000
-2165.874,-2218.226,-2422.178,-34876.640,-1901.157,-2574.217,-2248.637,1623.046,0.000
-2395.478,-2449.989,-2665.251,-35228.540,-2113.882,-2829.509,-2489.245,789.548,0.000
-2627.092,-2683.589,-2904.999,-35594.830,-2327.194,-3088.922,-2728.134,-42.327,0.000
-2859.647,-2918.762,-3146.413,-35927.440,-2541.140,-3349.872,-2967.896,-871.679,0.000
-3087.268,-3150.828,-3388.441,-36291.720,-2754.373,-3609.871,-3208.519,-1698.031,0.000
-3305.806,-3374.215,-3612.374,-36597.750,-2952.192,-3861.365,-3428.088,-2518.924,0.000
-3526.712,-3601.175,-3848.224,-36942.410,-3158.967,-4110.355,-3662.439,-3337.996,0.000
-3749.719,-3829.929,-4079.817,-37294.810,-3364.134,-4362.579,-3891.874,-4154.288,0.000
-3974.290,-4059.116,-4311.205,-37611.500,-3567.526,-4614.795,-4120.126,-4967.257,0.000
-4196.167,-4286.272,-4544.938,-37965.110,-3771.817,-4862.347,-4352.279,-5778.511,0.000
-4416.205,-4511.721,-4768.229,-38268.330,-3968.677,-5109.178,-4572.364,-6586.220,0.000
-4642.787,-4743.773,-5006.722,-38612.380,-4177.938,-5360.664,-4809.792,-7393.254,0.000
-4865.521,-4971.418,-5235.348,-38957.480,-4380.747,-5610.275,-5035.408,-8196.797,0.000
-5083.420,-5192.389,-5459.270,-39260.080,-4578.276,-5854.503,-5255.220,-8994.433,0.000
-5299.001,-5408.030,-5686.505,-39600.710,-4776.251,-6092.328,-5478.120,-9788.770,0.000
-5513.418,-5619.477,-5903.440,-39890.430,-4964.701,-6327.603,-5686.744,-10579.830,0.000
-5731.775,-5834.973,-6133.447,-40216.590,-5162.962,-6565.926,-5911.306,-11369.840,0.000
-5946.179,-6048.791,-6355.028,-40547.540,-5356.441,-6804.146,-6127.538,-12156.940,0.000
-6159.683,-6266.526,-6577.658,-40845.790,-5551.520,-7044.555,-6345.712,-12941.020,0.000
-6372.243,-6487.756,-6805.672,-41186.720,-5752.143,-7286.315,-6572.377,-13722.890,0.000
-6581.540,-6705.363,-7019.815,-41472.990,-5942.526,-7526.350,-6783.516,-14499.950,0.000
-6796.803,-6927.287,-7247.720,-41791.250,-6143.243,-7768.659,-7009.846,-15276.200,0.000
-7011.345,-7145.887,-7469.456,-42111.490,-6338.557,-8009.138,-7226.772,-16050.820,0.000
-7223.680,-7360.249,-7688.602,-42397.450,-6529.768,-8245.285,-7440.745,-16822.130,0.000
-7433.214,-7571.989,-7909.991,-42727.570,-6723.819,-8477.229,-7661.396,-17590.690,0.000
-7636.338,-7778.038,-8116.301,-42999.020,-6906.586,-8705.270,-7865.990,-18352.990,0.000
-7838.738,-7984.483,-8332.598,-43293.410,-7095.567,-8933.798,-8082.125,-19111.040,0.000
-8039.258,-8188.866,-8542.647,-43589.190,-7281.200,-9164.242,-8290.595,-19866.260,0.000
-8244.517,-8398.314,-8755.858,-43856.540,-7470.503,-9398.824,-8503.062,-20620.580,0.000
-8454.635,-8612.747,-8976.883,-44176.320,-7666.749,-9634.582,-8725.554,-21375.910,0.000
-8665.356,-8826.755,-9188.302,-44447.650,-7854.945,-9869.938,-8934.236,-22129.100,0.000
-8879.542,-9044.374,-9412.854,-44745.190,-8051.516,-10105.070,-9155.466,-22879.640,0.000
-9086.099,-9252.462,-9624.981,-45036.700,-8236.914,-10328.900,-9360.055,-23624.760,0.000
-9283.366,-9450.077,-9827.893,-45286.680,-8411.729,-10540.730,-9553.626,-24364.490,0.000
-9476.332,-9645.380,-10032.580,-45582.290,-8588.396,-10754.510,-9752.747,-25101.920,0.000
-9668.283,-9841.128,-10227.130,-45830.860,-8760.084,-10976.510,-9943.319,-25836.170,0.000
-9864.479,-10042.690,-10434.640,-46109.220,-8942.897,-11201.650,-10151.610,-26568.650,0.000
-10061.890,-10244.960,-10637.860,-46390.140,-9123.274,-11425.500,-10352.450,-27298.060,0.000
-10265.480,-10450.940,-10846.910,-46640.050,-9306.598,-11650.910,-10554.800,-28025.010,0.000
-10471.520,-10656.980,-11064.480,-46940.420,-9495.158,-11874.260,-10765.170,-28750.970,0.000
-10671.170,-10854.840,-11265.740,-47189.390,-9669.817,-12089.870,-10956.240,-29472.930,0.000
-10866.920,-11049.500,-11470.180,-47457.770,-9845.774,-12300.950,-11155.040,-30192.360,0.000
-11053.740,-11236.410,-11660.680,-47718.120,-10012.200,-12509.630,-11343.800,-30907.300,0.000
-11238.450,-11424.290,-11851.260,-47944.400,-10180.030,-12721.150,-11536.210,-31617.750,0.000
-11428.950,-11621.260,-12055.360,-48229.160,-10361.190,-12939.200,-11744.180,-32327.830,0.000
-11623.640,-11821.050,-12253.720,-48471.330,-10538.960,-13161.240,-11942.150,-33036.460,0.000
-11822.720,-12023.390,-12462.470,-48737.330,-10723.680,-13383.760,-12150.740,-33744.630,0.000
-12015.710,-12218.710,-12658.180,-48996.590,-10897.690,-13600.030,-12343.210,-34449.030,0.000
-12202.920,-12408.210,-12848.830,-49216.890,-11065.230,-13811.220,-12531.210,-35147.280,0.000
-12388.060,-12595.610,-13045.040,-49487.450,-11236.300,-14020.210,-12730.010,-35842.290,0.000
-12572.400,-12781.400,-13231.420,-49710.600,-11400.220,-14228.580,-12917.690,-36534.900,0.000
-12761.350,-12972.740,-13430.870,-49957.040,-11573.990,-14438.940,-13118.340,-37227.520,0.000
-12946.380,-13160.580,-13622.210,-50199.250,-11740.860,-14646.010,-13305.120,-37917.300,0.000
-13131.410,-13348.420,-13814.050,-50409.600,-11906.720,-14852.470,-13488.400,-38603.490,0.000
-13320.810,-13541.160,-14015.620,-50679.470,-12082.330,-15061.710,-13682.670,-39288.370,0.000
-13505.960,-13731.590,-14203.810,-50903.460,-12249.660,-15269.520,-13863.070,-39968.860,0.000
-13689.470,-13923.890,-14400.400,-51148.450,-12423.340,-15478.030,-14057.450,-40647.120,0.000
-13871.970,-14114.330,-14591.230,-51391.660,-12592.610,-15687.850,-14245.940,-41323.560,0.000
-14057.260,-14303.140,-14783.140,-51600.920,-12760.720,-15896.720,-14432.900,-41997.300,0.000
-14246.090,-14491.660,-14983.440,-51864.010,-12935.030,-16103.780,-14628.210,-42669.170,0.000
-14435.880,-14679.850,-15175.800,-52082.240,-13104.150,-16312.190,-14813.330,-43337.110,0.000
-14627.020,-14871.770,-15378.600,-52322.690,-13281.380,-16521.360,-15011.790,-44003.080,0.000
-14811.110,-15058.820,-15568.970,-52562.470,-13450.040,-16725.320,-15198.300,-44666.470,0.000
-14992.830,-15245.410,-15756.820,-52772.290,-13617.150,-16928.730,-15385.210,-45326.950,0.000
-15172.960,-15432.780,-15950.650,-53034.940,-13790.300,-17134.040,-15582.990,-45985.050,0.000
-15347.610,-15615.330,-16131.050,-53251.030,-13953.870,-17339.800,-15766.950,-46639.130,0.000
-15521.970,-15796.620,-16318.520,-53490.950,-14121.710,-17542.720,-15960.840,-47292.010,0.000
-15690.820,-15970.270,-16493.150,-53728.050,-14278.610,-17737.590,-16140.520,-47941.880,0.000
-15862.660,-16148.160,-16670.160,-53934.330,-14436.250,-17937.800,-16320.320,-48589.320,0.000
-16042.640,-16335.260,-16861.940,-54197.770,-14604.720,-18144.520,-16509.770,-49236.290,0.000
-16220.510,-16515.040,-17041.040,-54411.380,-14759.950,-18340.250,-16676.600,-49878.010,0.000
-16395.730,-16687.540,-17223.710,-54642.550,-14915.240,-18526.130,-16849.430,-50516.250,0.000
-16567.390,-16856.990,-17397.370,-54874.750,-15066.270,-18712.470,-17017.540,-51152.250,0.000
-16738.800,-17030.580,-17572.990,-55076.880,-15220.880,-18903.410,-17191.890,-51786.020,0.000
-16906.250,-17203.170,-17753.650,-55330.100,-15380.240,-19093.050,-17374.950,-52417.770,0.000
-17067.170,-17368.730,-17918.980,-55533.810,-15526.350,-19278.440,-17538.970,-53045.320,0.000
-17232.650,-17538.700,-18096.220,-55760.830,-15679.580,-19466.320,-17715.710,-53672.070,0.000
-17402.020,-17710.790,-18270.710,-55991.350,-15831.320,-19656.530,-17887.740,-54296.620,0.000
-17574.310,-17883.500,-18445.760,-56188.880,-15983.100,-19845.110,-18058.540,-54917.500,0.000
-17745.420,-18054.030,-18624.710,-56437.370,-16139.120,-20030.160,-18236.000,-55536.790,0.000
-17911.880,-18219.720,-18791.280,-56640.600,-16287.660,-20214.720,-18400.520,-56152.450,0.000
-18080.880,-18390.500,-18972.710,-56868.520,-16448.370,-20403.890,-18580.830,-56766.190,0.000
-18247.030,-18560.890,-19148.990,-57098.380,-16605.770,-20593.930,-18753.000,-57377.120,0.000
-18409.080,-18728.970,-19320.200,-57296.180,-16757.900,-20781.680,-18921.680,-57984.980,0.000
-18566.540,-18893.760,-19491.070,-57544.100,-16908.620,-20963.920,-19095.060,-58591.030,0.000
-18718.980,-19053.090,-19646.400,-57740.280,-17044.570,-21139.910,-19248.490,-59192.930,0.000
-18877.460,-19217.610,-19815.210,-57958.200,-17188.180,-21316.840,-19413.090,-59793.860,0.000
-19040.250,-19383.730,-19981.710,-58180.350,-17331.230,-21497.000,-19573.710,-60392.780,0.000
-19207.050,-19550.660,-20150.000,-58371.460,-17476.880,-21680.010,-19738.230,-60988.560,0.000
-19374.760,-19716.980,-20325.250,-58615.320,-17629.380,-21862.050,-19912.400,-61583.050,0.000
-19540.310,-19881.300,-20490.800,-58814.590,-17775.180,-22043.040,-20071.710,-62174.410,0.000
-19708.500,-20051.440,-20669.970,-59040.070,-17932.080,-22227.690,-20245.350,-62764.660,0.000
-19869.670,-20217.410,-20838.780,-59266.830,-18082.430,-22410.290,-20409.730,-63351.770,0.000
-20025.400,-20378.980,-21001.700,-59456.460,-18227.010,-22587.750,-20569.430,-63934.980,0.000
-20179.800,-20539.740,-21169.580,-59694.470,-18375.700,-22763.580,-20737.720,-64516.320,0.000
-20332.670,-20698.290,-21326.470,-59885.410,-18517.010,-22941.680,-20895.790,-65093.990,0.000
-20490.890,-20860.550,-21496.070,-60102.680,-18666.650,-23120.180,-21068.660,-65670.710,0.000
-20650.200,-21021.270,-21660.130,-60324.700,-18810.480,-23297.220,-21230.950,-66245.310,0.000
-20811.950,-21182.650,-21824.170,-60511.330,-18952.330,-23477.490,-21389.210,-66817.050,0.000
-20971.880,-21340.840,-21991.320,-60744.070,-19096.430,-23651.950,-21552.080,-67386.980,0.000
-21125.190,-21492.140,-22142.660,-60926.130,-19229.430,-23819.390,-21699.600,-67952.100,0.000
-21280.040,-21648.120,-22306.220,-61132.960,-19373.170,-23990.860,-21864.820,-68515.230,0.000
-21431.790,-21802.950,-22464.190,-61344.420,-19514.410,-24162.150,-22023.480,-69076.660,0.000
-21582.880,-21958.700,-22621.970,-61522.180,-19655.630,-24332.990,-22180.960,-69636.530,0.000
-21734.770,-22117.010,-22787.220,-61751.770,-19803.400,-24505.520,-22348.400,-70195.340,0.000
-21881.710,-22268.780,-22937.420,-61931.680,-19938.560,-24675.870,-22497.950,-70748.730,0.000
-22027.740,-22418.850,-23094.540,-62130.330,-20076.940,-24844.440,-22655.950,-71299.180,0.000
-22170.950,-22565.460,-23243.540,-62329.510,-20208.530,-25008.300,-22803.110,-71847.360,0.000
-22316.930,-22713.540,-23393.180,-62496.060,-20338.640,-25170.060,-22948.130,-72393.390,0.000
-22467.980,-22866.420,-23553.090,-62719.200,-20476.470,-25335.070,-23103.930,-72939.590,0.000
-22616.100,-23015.950,-23700.530,-62893.250,-20604.830,-25500.300,-23243.950,-73482.410,0.000
-22762.670,-23165.610,-23855.850,-63085.090,-20740.160,-25665.580,-23396.750,-74022.400,0.000
-22907.180,-23314.180,-24005.540,-63284.040,-20874.460,-25830.780,-23546.910,-74560.230,0.000
-23054.900,-23465.040,-24157.990,-63453.360,-21010.580,-25996.540,-23699.210,-75096.330,0.000
-23202.590,-23615.690,-24317.710,-63672.470,-21150.110,-26160.420,-23858.020,-75631.090,0.000
-23344.580,-23759.850,-24463.130,-63842.270,-21275.950,-26319.820,-23997.210,-76161.880,0.000
-23491.320,-23908.300,-24620.050,-64038.540,-21410.350,-26480.620,-24149.460,-76691.840,0.000
-23639.330,-24056.990,-24770.510,-64239.800,-21542.840,-26642.740,-24296.620,-77219.300,0.000
-23784.580,-24201.840,-24915.510,-64397.050,-21670.720,-26802.330,-24439.330,-77741.630,0.000
-23926.380,-24343.290,-25063.380,-64597.830,-21800.440,-26958.090,-24586.490,-78261.590,0.000
-24065.930,-24483.340,-25201.290,-64753.770,-21923.510,-27115.460,-24721.680,-78779.270,0.000
-24209.870,-24629.350,-25354.380,-64940.580,-22058.190,-27277.660,-24875.180,-79296.410,0.000
-24350.510,-24771.470,-25500.220,-65135.060,-22187.260,-27435.350,-25019.810,-79810.630,0.000
-24489.000,-24912.390,-25642.700,-65288.550,-22312.840,-27588.750,-25159.300,-80321.910,0.000
-24627.430,-25056.140,-25791.800,-65488.200,-22444.310,-27742.180,-25306.950,-80832.700,0.000
-24762.600,-25195.560,-25928.010,-65638.500,-22565.470,-27894.030,-25438.630,-81339.590,0.000
-24900.520,-25335.640,-26074.820,-65811.480,-22693.000,-28045.960,-25582.560,-81844.280,0.000
-25036.870,-25472.570,-26215.170,-65990.590,-22816.120,-28197.350,-25719.820,-82346.290,0.000
-25173.650,-25609.780,-26355.120,-66132.790,-22939.240,-28351.170,-25857.640,-82845.300,0.000
-25312.780,-25750.640,-26503.960,-66327.590,-23071.140,-28508.900,-26007.790,-83343.660,0.000
-25449.210,-25888.660,-26639.430,-66476.590,-23194.050,-28663.600,-26142.420,-83838.750,0.000
-25587.500,-26029.060,-26784.670,-66649.920,-23323.630,-28815.200,-26288.360,-84332.980,0.000
-25724.170,-26169.070,-26925.690,-66834.230,-23450.210,-28971.260,-26429.240,-84826.380,0.000
-25858.430,-26308.140,-27065.040,-66977.800,-23574.230,-29130.870,-26568.270,-85315.990,0.000
-25987.830,-26442.880,-27206.040,-67159.840,-23697.690,-29280.200,-26710.060,-85801.450,0.000
-26109.200,-26568.890,-27329.020,-67288.660,-23805.620,-29418.440,-26830.600,-86282.000,0.000
-26232.590,-26697.260,-27462.230,-67444.680,-23921.340,-29558.010,-26963.990,-86762.310,0.000
-26359.300,-26827.200,-27593.210,-67617.480,-24037.330,-29699.820,-27093.600,-87242.730,0.000
-26490.970,-26959.470,-27726.150,-67754.920,-24153.400,-29841.330,-27221.520,-87720.890,0.000
-26624.290,-27092.630,-27866.830,-67938.300,-24273.340,-29982.060,-27356.430,-88197.410,0.000
-26754.230,-27222.110,-27994.610,-68073.440,-24383.190,-30123.850,-27476.480,-88671.130,0.000
-26881.800,-27350.340,-28129.020,-68228.590,-24498.900,-30263.930,-27608.080,-89142.600,0.000
-26998.310,-27468.550,-28250.310,-68388.210,-24605.540,-30394.690,-27727.690,-89609.030,0.000
-27113.200,-27586.320,-28370.140,-68510.560,-24711.190,-30525.400,-27846.750,-90072.380,0.000
-27234.520,-27711.490,-28503.060,-68684.660,-24829.400,-30664.660,-27983.770,-90536.750,0.000
-27355.230,-27835.800,-28625.810,-68811.130,-24940.640,-30808.180,-28109.820,-90998.140,0.000
-27476.670,-27961.030,-28756.690,-68956.020,-25055.850,-30950.130,-28243.980,-91456.950,0.000
-27595.660,-28082.590,-28879.610,-69108.430,-25164.100,-31086.040,-28365.660,-91912.880,0.000
-27716.930,-28205.720,-29002.870,-69225.840,-25272.340,-31221.990,-28485.590,-92366.630,0.000
-27841.390,-28332.560,-29136.120,-69395.930,-25389.700,-31360.740,-28618.250,-92820.540,0.000
-27964.540,-28457.410,-29258.630,-69519.350,-25499.580,-31499.780,-28738.740,-93271.590,0.000
-28091.490,-28587.540,-29393.530,-69663.300,-25618.820,-31642.300,-28874.960,-93721.050,0.000
-28213.230,-28713.600,-29520.350,-69817.050,-25731.620,-31781.490,-29002.270,-94168.150,0.000
-28325.520,-28829.460,-29637.220,-69928.090,-25833.510,-31909.120,-29117.210,-94611.440,0.000
-28433.160,-28940.170,-29756.090,-70082.320,-25936.490,-32029.930,-29235.250,-95052.190,0.000
-28542.830,-29052.560,-29867.310,-70193.340,-26035.610,-32155.470,-29342.660,-95489.630,0.000
-28662.630,-29175.590,-29996.500,-70332.250,-26148.760,-32289.530,-29468.360,-95927.430,0.000
-28783.120,-29297.970,-30121.220,-70483.920,-26257.590,-32423.170,-29587.130,-96364.720,0.000
-28904.960,-29420.010,-30244.630,-70597.900,-26363.660,-32556.070,-29703.530,-96799.720,0.000
-29029.480,-29544.530,-30377.360,-70760.140,-26478.120,-32689.050,-29832.070,-97232.830,0.000
-29146.760,-29662.050,-30494.690,-70873.650,-26581.650,-32817.740,-29945.490,-97660.780,0.000
-29258.990,-29776.670,-30616.670,-71005.540,-26687.600,-32944.410,-30069.150,-98086.210,0.000
-29366.380,-29887.160,-30729.880,-71147.620,-26787.070,-33068.800,-30184.320,-98509.930,0.000
-29473.210,-29997.440,-30840.240,-71249.520,-26884.160,-33192.770,-30295.580,-98931.640,0.000
-29579.200,-30108.450,-30957.020,-71397.810,-26986.850,-33314.680,-30414.300,-99352.640,0.000
-29681.310,-30215.630,-31061.750,-71502.870,-27080.560,-33432.970,-30516.990,-99770.970,0.000
-29784.930,-30325.820,-31176.680,-71629.370,-27182.850,-33556.530,-30633.650,-100187.900,0.000
-29884.500,-30433.470,-31284.100,-71764.860,-27281.690,-33682.880,-30744.980,-100601.800,0.000
-29984.020,-30541.960,-31391.220,-71864.630,-27379.470,-33807.820,-30854.970,-101013.800,0.000
-30085.710,-30652.910,-31508.000,-72014.870,-27483.760,-33931.960,-30975.530,-101425.300,0.000
-30185.400,-30758.410,-31611.170,-72116.810,-27576.460,-34053.160,-31080.380,-101832.100,0.000
-30290.630,-30865.810,-31724.470,-72238.480,-27675.720,-34172.480,-31196.660,-102236.800,0.000
-30398.870,-30974.740,-31835.090,-72376.710,-27774.270,-34291.100,-31306.950,-102639.700,0.000
-30509.710,-31087.790,-31946.590,-72479.720,-27873.400,-34413.390,-31416.170,-103039.200,0.000
-30621.830,-31203.710,-32067.200,-72630.270,-27979.560,-34539.010,-31536.750,-103438.600,0.000
-30730.290,-31313.820,-32176.200,-72738.550,-28076.610,-34662.890,-31643.650,-103837.700,0.000
-30838.550,-31422.220,-32292.430,-72867.550,-28178.850,-34783.950,-31760.940,-104236.600,0.000
-30943.830,-31527.830,-32399.970,-73002.300,-28275.020,-34901.010,-31868.150,-104632.600,0.000
-31051.350,-31636.600,-32507.860,-73095.180,-28369.300,-35019.580,-31972.230,-105024.700,0.000
-31162.360,-31749.300,-32626.540,-73237.300,-28470.590,-35141.340,-32087.180,-105414.500,0.000
-31272.790,-31859.500,-32735.220,-73337.700,-28563.530,-35260.470,-32186.840,-105800.600,0.000
-31386.710,-31972.400,-32855.660,-73459.010,-28664.820,-35376.160,-32297.390,-106185.000,0.000
-31494.220,-32078.640,-32966.000,-73586.730,-28760.170,-35486.550,-32399.410,-106566.500,0.000
-31596.660,-32179.260,-33067.630,-73672.340,-28850.710,-35597.320,-32498.410,-106946.000,0.000
-31702.040,-32283.180,-33176.130,-73810.730,-28948.840,-35713.970,-32610.190,-107327.100,0.000
-31808.460,-32388.010,-33275.750,-73910.990,-29039.590,-35831.790,-32709.660,-107706.600,0.000
-31916.680,-32495.250,-33387.470,-74029.780,-29137.050,-35947.700,-32820.680,-108083.500,0.000
-32019.550,-32597.380,-33492.500,-74152.240,-29228.370,-36057.910,-32922.340,-108456.300,0.000
-32119.180,-32695.910,-33593.420,-74231.420,-29314.050,-36163.050,-33018.360,-108825.600,0.000
-32217.850,-32795.140,-33700.540,-74360.340,-29404.770,-36270.680,-33123.970,-109193.700,0.000
-32314.880,-32895.070,-33796.730,-74449.900,-29489.940,-36385.420,-33218.540,-109559.200,0.000
-32415.320,-32998.500,-33903.520,-74562.480,-29583.870,-36499.680,-33326.170,-109924.500,0.000
-32511.860,-33095.150,-34001.520,-74685.330,-29670.570,-36606.180,-33423.160,-110288.300,0.000
-32610.180,-33191.860,-34097.960,-74769.450,-29756.020,-36715.260,-33518.860,-110649.400,0.000
-32713.970,-33293.890,-34205.360,-74904.300,-29852.130,-36828.530,-33629.980,-111009.700,0.000
-32812.880,-33391.100,-34299.430,-74994.590,-29937.730,-36936.160,-33724.920,-111365.500,0.000
-32909.460,-33488.220,-34401.120,-75101.290,-30027.050,-37040.710,-33827.580,-111718.400,0.000
-33003.380,-33582.880,-34496.910,-75216.400,-30111.530,-37144.380,-33921.890,-112068.700,0.000
-33098.030,-33676.570,-34591.760,-75292.700,-30193.310,-37246.610,-34012.580,-112417.700,0.000
-33192.100,-33770.010,-34694.130,-75418.840,-30280.290,-37345.620,-34112.120,-112767.300,0.000
-33284.200,-33862.720,-34786.180,-75503.460,-30360.680,-37445.030,-34199.500,-113114.100,0.000
-33386.040,-33967.090,-34895.360,-75616.450,-30456.660,-37556.200,-34307.460,-113461.500,0.000
-33486.500,-34069.050,-34997.790,-75745.300,-30549.660,-37670.630,-34410.190,-113808.700,0.000
-33578.180,-34160.560,-35088.310,-75828.050,-30631.380,-37777.010,-34501.630,-114151.800,0.000
-33667.430,-34250.950,-35183.030,-75953.910,-30714.730,-37877.460,-34597.990,-114492.400,0.000
-33754.510,-34339.960,-35266.200,-76032.860,-30788.010,-37973.380,-34677.450,-114829.600,0.000
-33841.830,-34429.060,-35358.230,-76125.440,-30866.390,-38066.680,-34767.000,-115164.300,0.000
-33928.890,-34516.520,-35448.170,-76229.730,-30944.360,-38162.520,-34854.350,-115496.100,0.000
-34021.570,-34609.160,-35542.730,-76301.460,-31027.380,-38266.180,-34945.000,-115826.100,0.000
-34112.900,-34701.400,-35642.620,-76422.510,-31115.020,-38367.120,-35042.020,-116155.900,0.000
-34193.840,-34782.800,-35722.570,-76493.840,-31185.430,-38456.540,-35116.540,-116482.300,0.000
-34276.700,-34867.260,-35811.890,-76583.720,-31262.220,-38545.400,-35204.360,-116807.600,0.000
-34361.530,-34955.680,-35898.800,-76688.340,-31339.760,-38639.820,-35291.890,-117131.200,0.000
-34447.660,-35045.810,-35984.300,-76753.910,-31417.320,-38739.500,-35379.310,-117452.500,0.000
-34536.670,-35136.840,-36079.410,-76870.700,-31503.570,-38841.460,-35478.530,-117774.300,0.000
-34624.430,-35223.140,-36164.840,-76944.140,-31581.580,-38939.720,-35562.820,-118093.900,0.000
-34710.860,-35307.370,-36257.880,-77031.080,-31661.770,-39030.440,-35653.350,-118410.800,0.000
-34789.790,-35386.630,-36340.770,-77125.540,-31733.230,-39117.160,-35731.840,-118724.200,0.000
-34867.840,-35468.820,-36422.260,-77180.480,-31803.650,-39211.270,-35809.000,-119034.800,0.000
-34951.060,-35556.080,-36516.040,-77288.530,-31884.500,-39308.590,-35902.120,-119345.600,0.000
-35033.420,-35639.250,-36597.710,-77354.450,-31957.040,-39401.460,-35982.190,-119654.600,0.000
-35115.800,-35722.070,-36685.490,-77437.160,-32035.070,-39493.370,-36072.680,-119962.100,0.000
-35196.220,-35802.390,-36767.090,-77532.290,-32109.560,-39583.590,-36156.900,-120268.000,0.000
-35280.760,-35886.430,-36851.100,-77589.410,-32184.080,-39674.320,-36240.140,-120573.000,0.000
-35367.290,-35973.570,-36945.040,-77695.150,-32265.270,-39765.300,-36333.420,-120876.800,0.000
-35446.610,-36054.320,-37023.230,-77752.400,-32335.020,-39854.450,-36408.800,-121175.000,0.000
-35525.080,-36136.480,-37109.520,-77826.300,-32411.020,-39945.340,-36495.620,-121471.800,0.000
-35601.080,-36216.190,-37189.650,-77914.260,-32482.460,-40035.030,-36576.630,-121767.600,0.000
-35677.820,-36294.940,-37266.530,-77961.420,-32550.500,-40122.840,-36653.980,-122061.300,0.000
-35758.170,-36376.170,-37352.100,-78059.010,-32626.350,-40210.120,-36742.250,-122355.300,0.000
-35838.430,-36455.250,-37427.190,-78114.540,-32694.250,-40297.930,-36816.180,-122647.800,0.000
-35921.950,-36538.430,-37514.560,-78187.410,-32769.170,-40389.130,-36901.780,-122939.400,0.000
-36003.060,-36620.890,-37598.140,-78273.300,-32841.720,-40479.660,-36981.990,-123228.700,0.000
-36081.820,-36701.010,-37677.980,-78317.250,-32912.400,-40567.330,-37058.910,-123515.200,0.000
-36155.230,-36776.860,-37759.770,-78403.830,-32984.810,-40648.900,-37140.630,-123798.900,0.000
-36224.080,-36849.000,-37827.710,-78441.450,-33045.890,-40727.720,-37204.430,-124077.900,0.000
-36302.310,-36929.950,-37912.700,-78501.100,-33119.500,-40813.270,-37285.130,-124357.800,0.000
-36382.130,-37009.760,-37994.780,-78579.350,-33191.570,-40898.920,-37361.960,-124637.900,0.000
-36461.660,-37087.520,-38073.250,-78616.830,-33260.190,-40982.680,-37435.490,-124914.700,0.000
-36543.030,-37167.590,-38160.940,-78707.150,-33336.620,-41068.110,-37521.550,-125190.400,0.000
-36619.690,-37242.880,-38234.880,-78757.230,-33402.310,-41152.320,-37591.300,-125463.800,0.000
-36694.850,-37318.420,-38315.760,-78822.570,-33471.830,-41235.520,-37670.090,-125736.300,0.000
-36763.800,-37389.750,-38387.550,-78897.770,-33535.650,-41315.320,-37741.900,-126005.800,0.000
-36831.160,-37460.510,-38454.830,-78929.510,-33596.790,-41394.230,-37811.510,-126271.700,0.000
-36901.890,-37535.050,-38532.450,-79012.210,-33666.390,-41474.570,-37894.090,-126537.900,0.000
-36972.410,-37607.870,-38600.740,-79050.300,-33728.860,-41556.710,-37964.050,-126802.200,0.000
-37048.990,-37684.860,-38682.800,-79103.160,-33800.950,-41641.800,-38048.830,-127065.400,0.000
-37125.130,-37759.210,-38760.580,-79171.620,-33868.370,-41722.150,-38125.150,-127326.900,0.000
-37199.360,-37832.000,-38834.120,-79198.300,-33929.490,-41800.380,-38190.950,-127585.300,0.000
-37274.450,-37907.100,-38916.380,-79276.170,-33997.490,-41880.300,-38266.380,-127842.700,0.000
-37343.960,-37977.040,-38983.720,-79311.010,-34055.660,-41958.270,-38329.100,-128097.300,0.000
-37408.450,-38044.310,-39053.830,-79357.160,-34116.650,-42033.770,-38402.200,-128350.200,0.000
-37465.310,-38104.290,-39114.020,-79416.270,-34171.060,-42102.160,-38466.080,-128601.400,0.000
-37522.370,-38163.340,-39173.430,-79435.260,-34223.370,-42167.480,-38525.460,-128850.800,0.000
-37584.000,-38227.030,-39245.180,-79505.480,-34284.500,-42235.940,-38597.170,-129099.700,0.000
-37643.250,-38287.690,-39303.380,-79532.820,-34335.390,-42305.590,-38653.410,-129345.200,0.000
-37707.440,-38353.140,-39371.930,-79580.650,-34394.540,-42378.610,-38722.980,-129590.600,0.000
-37774.510,-38420.510,-39439.040,-79651.480,-34454.870,-42453.150,-38791.190,-129835.800,0.000
-37838.990,-38485.330,-39501.330,-79676.850,-34511.290,-42525.960,-38854.960,-130077.500,0.000
-37899.420,-38547.490,-39568.330,-79744.750,-34570.480,-42595.590,-38925.840,-130317.500,0.000
-37954.560,-38603.480,-39621.090,-79768.510,-34617.620,-42660.520,-38977.970,-130554.800,0.000
-38013.980,-38662.830,-39684.910,-79810.010,-34672.660,-42726.000,-39041.320,-130791.400,0.000
-38076.000,-38724.530,-39748.460,-79871.820,-34729.330,-42794.000,-39103.250,-131026.900,0.000
-38135.990,-38785.680,-39809.130,-79888.830,-34782.220,-42861.460,-39160.860,-131258.400,0.000
-38190.380,-38843.710,-39873.180,-79950.170,-34835.370,-42923.590,-39223.740,-131487.700,0.000
-38241.180,-38899.750,-39924.990,-79971.770,-34879.530,-42985.500,-39273.190,-131716.200,0.000
-38299.990,-38965.020,-39992.020,-80012.380,-34937.690,-43057.300,-39342.470,-131947.000,0.000
-38358.450,-39026.800,-40053.940,-80068.450,-34993.630,-43128.630,-39406.550,-132176.600,0.000
-38415.120,-39081.690,-40108.500,-80078.950,-35041.860,-43191.340,-39460.110,-132401.400,0.000
-38474.160,-39135.660,-40169.970,-80138.200,-35094.290,-43248.440,-39520.920,-132624.900,0.000
-38533.910,-39189.030,-40221.930,-80157.700,-35139.970,-43306.840,-39569.130,-132846.400,0.000
-38601.480,-39253.710,-40291.300,-80193.440,-35200.340,-43375.990,-39636.340,-133067.500,0.000
-38666.410,-39319.770,-40358.560,-80245.280,-35260.180,-43447.290,-39700.590,-133287.000,0.000
-38722.390,-39379.630,-40416.810,-80251.800,-35311.650,-43512.720,-39756.680,-133503.300,0.000
-38773.510,-39436.860,-40478.680,-80306.180,-35366.980,-43573.580,-39821.690,-133718.300,0.000
-38820.090,-39489.990,-40526.920,-80319.980,-35413.350,-43634.850,-39872.000,-133930.500,0.000
-38871.170,-39547.430,-40585.970,-80349.900,-35467.460,-43703.370,-39936.000,-134142.300,0.000
-38928.990,-39606.650,-40644.990,-80403.190,-35521.750,-43773.210,-39999.910,-134355.100,0.000
-38993.380,-39667.250,-40703.950,-80418.960,-35574.910,-43841.900,-40061.860,-134567.200,0.000
-39056.080,-39726.540,-40768.180,-80480.160,-35631.500,-43907.090,-40129.660,-134777.500,0.000
-39110.350,-39778.600,-40816.940,-80495.790,-35676.140,-43965.330,-40177.680,-134983.300,0.000
-39165.090,-39833.060,-40876.970,-80524.300,-35729.240,-44022.110,-40237.500,-135187.300,0.000
-39215.280,-39884.790,-40932.240,-80567.400,-35778.480,-44076.090,-40290.230,-135389.500,0.000
-39264.640,-39937.220,-40984.370,-80568.180,-35823.550,-44131.700,-40336.560,-135589.300,0.000
-39318.290,-39994.800,-41047.020,-80621.590,-35877.250,-44191.990,-40396.160,-135789.300,0.000
-39367.070,-40045.640,-41093.560,-80631.700,-35919.200,-44249.070,-40440.520,-135986.200,0.000
-39417.150,-40096.440,-41146.880,-80652.200,-35965.570,-44304.320,-40494.330,-136182.300,0.000
-39470.180,-40148.910,-41198.850,-80692.950,-36011.790,-44360.180,-40543.920,-136378.500,0.000
-39524.620,-40202.100,-41248.660,-80692.230,-36056.170,-44418.040,-40590.610,-136572.700,0.000
-39578.210,-40255.220,-41305.610,-80737.910,-36105.800,-44475.890,-40648.280,-136765.200,0.000
-39629.890,-40307.030,-41353.540,-80744.280,-36148.210,-44533.190,-40693.400,-136955.100,0.000
-39685.390,-40364.880,-41415.350,-80765.400,-36201.030,-44593.630,-40753.340,-137144.800,0.000
-39733.860,-40416.240,-41468.250,-80798.280,-36247.740,-44649.860,-40805.160,-137332.300,0.000
-39777.860,-40462.550,-41513.900,-80786.540,-36289.250,-44705.230,-40851.140,-137517.300,0.000
-39827.230,-40516.200,-41573.530,-80831.450,-36344.290,-44768.050,-40914.910,-137703.500,0.000
-39878.000,-40571.970,-41625.450,-80839.820,-36393.930,-44831.720,-40967.380,-137887.000,0.000
-39928.190,-40625.430,-41681.730,-80853.750,-36442.460,-44886.690,-41023.130,-138066.800,0.000
-39970.950,-40668.370,-41724.450,-80874.980,-36477.710,-44929.770,-41062.920,-138243.600,0.000
-40017.780,-40713.510,-41766.470,-80856.840,-36513.800,-44977.740,-41102.810,-138419.700,0.000
-40074.440,-40768.050,-41826.390,-80901.990,-36568.110,-45037.480,-41166.070,-138598.300,0.000
-40124.480,-40814.820,-41871.650,-80910.480,-36611.170,-45091.650,-41211.590,-138774.000,0.000
-40167.200,-40856.020,-41917.880,-80924.390,-36651.540,-45135.340,-41256.870,-138946.200,0.000
-40203.720,-40894.590,-41956.170,-80950.160,-36685.610,-45174.820,-41292.920,-139115.300,0.000
-40241.980,-40936.680,-41994.280,-80936.090,-36719.050,-45216.160,-41327.640,-139283.600,0.000
-40286.710,-40985.150,-42046.900,-80980.630,-36763.670,-45263.080,-41377.730,-139455.200,0.000
-40330.720,-41031.480,-42088.470,-80987.760,-36800.140,-45315.060,-41413.940,-139625.000,0.000
-40376.160,-41078.910,-42137.680,-81003.980,-36842.520,-45367.770,-41461.570,-139791.700,0.000
-40418.410,-41122.490,-42181.380,-81036.520,-36882.490,-45416.460,-41505.230,-139956.300,0.000
-40459.240,-41163.540,-42220.550,-81025.450,-36918.390,-45463.930,-41543.300,-140118.800,0.000
-40502.560,-41205.930,-42268.590,-81064.910,-36959.960,-45509.790,-41591.580,-140280.500,0.000
-40547.820,-41247.430,-42308.590,-81069.270,-36995.800,-45555.450,-41629.320,-140440.000,0.000
-40597.820,-41293.710,-42361.260,-81087.840,-37042.610,-45606.900,-41683.450,-140599.500,0.000
-40639.640,-41335.060,-42404.900,-81118.580,-37083.410,-45656.160,-41728.780,-140757.000,0.000
-40674.360,-41372.800,-42439.680,-81101.030,-37116.050,-45699.720,-41762.270,-140911.900,0.000
-40709.490,-41412.400,-42482.360,-81135.280,-37155.250,-45740.540,-41806.530,-141067.800,0.000
-40738.320,-41444.340,-42509.270,-81127.410,-37182.300,-45775.410,-41835.270,-141220.000,0.000
-40765.490,-41474.400,-42542.660,-81123.800,-37211.890,-45807.730,-41872.300,-141369.200,0.000
-40798.020,-41508.670,-42578.790,-81141.590,-37243.450,-45845.870,-41908.570,-141518.100,0.000
-40840.810,-41550.490,-42619.400,-81124.560,-37278.570,-45892.600,-41945.580,-141666.500,0.000
-40886.130,-41593.470,-42667.880,-81158.740,-37320.190,-45938.200,-41992.970,-141813.900,0.000
-40925.470,-41629.760,-42701.020,-81150.850,-37349.840,-45977.810,-42023.090,-141958.500,0.000
-40965.290,-41667.280,-42742.640,-81154.240,-37385.090,-46017.820,-42063.520,-142102.700,0.000
-40999.900,-41700.490,-42777.220,-81175.410,-37415.380,-46056.450,-42097.800,-142245.600,0.000
-41031.410,-41732.910,-42806.910,-81150.910,-37441.420,-46095.220,-42127.150,-142385.800,0.000
-41066.470,-41771.820,-42850.210,-81179.660,-37479.170,-46137.960,-42172.050,-142525.800,0.000
-41101.280,-41808.670,-42884.210,-81173.420,-37510.640,-46179.680,-42203.730,-142664.000,0.000
-41136.110,-41843.810,-42923.090,-81176.590,-37544.690,-46216.730,-42241.720,-142801.600,0.000
-41165.460,-41874.050,-42952.780,-81194.090,-37572.500,-46250.460,-42273.250,-142937.200,0.000
-41196.410,-41905.440,-42980.980,-81167.970,-37599.070,-46288.820,-42304.690,-143070.500,0.000
-41231.090,-41940.480,-43020.940,-81195.070,-37634.290,-46328.830,-42348.770,-143203.600,0.000
-41261.120,-41970.870,-43046.610,-81183.270,-37657.800,-46362.610,-42374.220,-143333.900,0.000
-41293.920,-42003.710,-43081.520,-81184.160,-37687.050,-46395.560,-42409.950,-143463.800,0.000
-41326.610,-42035.630,-43114.470,-81206.950,-37715.040,-46428.040,-42441.500,-143592.400,0.000
-41360.320,-42068.540,-43146.440,-81186.920,-37742.090,-46461.290,-42469.570,-143719.500,0.000
-41398.220,-42107.170,-43190.750,-81220.100,-37780.740,-46502.060,-42513.610,-143848.200,0.000
-41433.910,-42144.090,-43223.360,-81214.770,-37811.610,-46547.480,-42543.980,-143974.600,0.000
-41469.720,-42181.050,-43263.300,-81217.820,-37845.960,-46588.680,-42582.270,-144099.400,0.000
-41500.040,-42211.610,-43295.050,-81237.790,-37873.720,-46620.790,-42611.890,-144222.500,0.000
-41526.540,-42236.920,-43318.780,-81209.030,-37894.670,-46648.210,-42632.790,-144342.500,0.000
-41554.370,-42263.590,-43351.700,-81228.900,-37922.030,-46674.530,-42664.910,-144461.400,0.000
-41582.170,-42290.960,-43375.730,-81212.070,-37941.970,-46703.270,-42685.660,-144578.300,0.000
-41615.820,-42325.510,-43412.350,-81210.880,-37971.790,-46739.940,-42722.710,-144696.600,0.000
-41648.270,-42359.700,-43444.920,-81235.030,-38001.430,-46779.110,-42757.850,-144815.200,0.000
-41676.960,-42390.720,-43470.320,-81211.230,-38025.720,-46815.520,-42784.980,-144930.000,0.000
-41703.820,-42419.340,-43502.430,-81231.340,-38054.020,-46846.200,-42819.610,-145042.700,0.000
-41726.380,-42440.890,-43521.390,-81210.840,-38072.020,-46870.900,-42836.840,-145152.600,0.000
-41751.490,-42464.600,-43549.860,-81199.580,-38098.010,-46896.700,-42865.060,-145261.700,0.000
-41776.390,-42489.790,-43576.310,-81209.490,-38124.390,-46925.230,-42891.770,-145370.100,0.000
-41802.270,-42518.660,-43602.100,-81175.960,-38149.000,-46957.770,-42915.940,-145477.400,0.000
-41829.660,-42551.630,-43638.880,-81194.010,-38180.340,-46991.140,-42951.550,-145585.100,0.000
-41852.760,-42579.200,-43660.960,-81173.840,-38199.550,-47019.350,-42969.200,-145690.600,0.000
-41878.540,-42607.570,-43691.200,-81165.510,-38224.880,-47047.840,-42998.460,-145796.000,0.000
-41905.100,-42635.500,-43719.320,-81184.390,-38251.010,-47078.640,-43028.630,-145900.600,0.000
-41930.920,-42661.760,-43741.550,-81157.220,-38272.730,-47108.620,-43053.600,-146002.100,0.000
-41956.980,-42686.720,-43770.580,-81175.020,-38299.120,-47135.600,-43086.900,-146103.500,0.000
-41983.360,-42709.090,-43790.110,-81155.010,-38318.380,-47161.860,-43106.680,-146203.300,0.000
-42016.130,-42737.190,-43823.460,-81148.090,-38347.160,-47190.630,-43140.250,-146302.000,0.000
-42044.930,-42762.010,-43852.090,-81165.290,-38371.240,-47215.220,-43166.550,-146397.900,0.000
-42068.000,-42783.140,-43872.590,-81134.450,-38388.020,-47237.010,-43183.620,-146490.700,0.000
-42090.290,-42806.540,-43901.670,-81150.380,-38412.560,-47258.550,-43213.520,-146584.300,0.000
-42107.730,-42826.880,-43917.360,-81126.640,-38427.640,-47279.980,-43228.670,-146676.400,0.000
-42126.940,-42851.070,-43941.740,-81112.900,-38449.340,-47309.260,-43255.350,-146768.000,0.000
-42146.800,-42874.450,-43964.230,-81125.990,-38470.840,-47339.870,-43280.450,-146859.300,0.000
-42167.460,-42895.090,-43982.410,-81093.200,-38487.890,-47365.700,-43298.620,-146947.700,0.000
-42189.270,-42915.820,-44008.810,-81106.260,-38510.750,-47389.220,-43325.920,-147034.600,0.000
-42207.930,-42933.460,-44023.110,-81080.930,-38524.730,-47410.890,-43338.030,-147119.500,0.000
-42231.030,-42956.750,-44049.320,-81067.700,-38547.610,-47434.440,-43363.290,-147205.500,0.000
-42254.280,-42979.020,-44073.180,-81078.940,-38569.150,-47457.130,-43386.250,-147290.300,0.000
-42276.820,-42998.660,-44091.220,-81040.980,-38584.790,-47479.980,-43402.960,-147371.600,0.000
-42300.300,-43020.550,-44118.070,-81052.590,-38607.160,-47503.980,-43431.160,-147454.000,0.000
-42318.230,-43038.480,-44131.390,-81028.190,-38620.840,-47524.950,-43443.850,-147535.100,0.000
-42336.460,-43058.100,-44153.720,-81011.370,-38642.730,-47545.800,-43468.030,-147614.800,0.000
-42354.470,-43077.510,-44175.300,-81021.600,-38664.800,-47566.500,-43490.500,-147693.800,0.000
-42374.200,-43098.260,-44194.830,-80991.230,-38683.680,-47589.710,-43508.940,-147771.600,0.000
-42391.860,-43117.050,-44219.490,-81009.950,-38706.040,-47612.460,-43537.540,-147848.800,0.000
-42398.440,-43123.910,-44222.410,-80985.520,-38710.740,-47625.880,-43544.290,-147920.900,0.000
-42407.590,-43134.250,-44233.640,-80965.500,-38719.450,-47637.010,-43558.570,-147990.900,0.000
-42421.980,-43150.220,-44248.110,-80971.420,-38730.630,-47651.190,-43572.080,-148060.800,0.000
-42438.100,-43166.010,-44260.690,-80934.910,-38739.700,-47666.230,-43580.040,-148129.200,0.000
-42455.640,-43181.120,-44282.620,-80954.050,-38756.830,-47680.370,-43598.930,-148198.000,0.000
-42472.770,-43194.820,-44294.150,-80944.300,-38768.230,-47696.560,-43607.200,-148265.800,0.000
-42497.130,-43218.300,-44320.550,-80950.930,-38791.910,-47721.090,-43634.420,-148335.400,0.000
-42519.590,-43242.270,-44345.600,-80988.490,-38814.900,-47745.980,-43660.180,-148405.700,0.000
-42531.700,-43257.190,-44357.330,-80977.320,-38825.250,-47763.300,-43671.800,-148471.300,0.000
-42537.990,-43267.660,-44371.060,-81011.710,-38836.200,-47776.050,-43689.780,-148534.100,0.000
-42543.730,-43275.640,-44373.820,-81012.260,-38839.730,-47788.590,-43694.840,-148595.000,0.000
-42556.960,-43288.160,-44389.220,-81022.370,-38852.870,-47802.880,-43712.320,-148655.800,0.000
-42571.420,-43299.080,-44403.060,-81058.090,-38865.230,-47814.770,-43726.540,-148716.000,0.000
-42587.980,-43311.230,-44414.740,-81052.310,-38875.040,-47827.300,-43735.760,-148774.900,0.000
-42607.940,-43329.360,-44439.180,-81101.610,-38894.380,-47842.180,-43757.950,-148834.500,0.000
-42622.090,-43342.930,-44450.370,-81115.630,-38903.380,-47853.740,-43763.450,-148890.800,0.000
-42635.610,-43356.030,-44468.310,-81135.880,-38917.420,-47865.040,-43778.790,-148945.900,0.000
-42648.570,-43368.400,-44484.090,-81183.750,-38932.370,-47879.250,-43794.990,-149001.800,0.000
-42662.440,-43382.260,-44496.210,-81187.780,-38945.820,-47897.650,-43809.340,-149056.600,0.000
-42677.180,-43398.290,-44516.490,-81240.460,-38965.360,-47912.880,-43834.550,-149110.700,0.000
-42685.630,-43407.240,-44520.250,-81252.190,-38970.590,-47919.310,-43838.800,-149160.800,0.000
-42693.520,-43416.620,-44529.840,-81262.950,-38979.040,-47929.420,-43850.120,-149209.100,0.000
-42700.260,-43425.570,-44537.620,-81294.130,-38986.900,-47942.860,-43858.740,-149256.900,0.000
-42708.280,-43434.260,-44542.890,-81277.550,-38991.420,-47953.340,-43860.380,-149302.400,0.000
-42719.980,-43446.020,-44559.800,-81312.270,-39004.140,-47963.630,-43874.500,-149348.100,0.000
-42729.230,-43454.850,-44565.350,-81314.790,-39008.650,-47975.250,-43877.240,-149393.400,0.000
-42741.340,-43467.350,-44580.410,-81326.490,-39021.630,-47991.500,-43896.140,-149441.400,0.000
-42754.540,-43481.400,-44594.770,-81365.720,-39037.180,-48009.740,-43917.030,-149490.900,0.000
-42765.190,-43493.060,-44602.670,-81355.960,-39047.540,-48024.930,-43929.580,-149537.500,0.000
-42771.210,-43501.230,-44614.650,-81391.700,-39059.750,-48034.420,-43948.000,-149581.500,0.000
-42773.640,-43505.320,-44613.150,-81392.010,-39060.680,-48039.960,-43947.820,-149621.900,0.000
-42781.110,-43514.530,-44621.990,-81394.650,-39067.510,-48045.310,-43955.400,-149660.400,0.000
-42785.180,-43520.230,-44626.830,-81413.880,-39071.020,-48046.100,-43957.470,-149697.300,0.000
-42786.330,-43521.700,-44626.320,-81381.700,-39070.360,-48046.070,-43953.940,-149733.000,0.000
-42791.960,-43525.800,-44638.570,-81399.460,-39080.620,-48051.340,-43967.230,-149770.100,0.000
-42799.860,-43530.600,-44642.850,-81384.300,-39085.490,-48060.620,-43970.480,-149805.000,0.000
-42811.310,-43540.920,-44656.750,-81381.110,-39097.110,-48071.990,-43985.130,-149838.500,0.000
-42816.950,-43546.570,-44663.080,-81412.590,-39103.510,-48077.600,-43993.230,-149871.100,0.000
-42818.340,-43546.580,-44659.190,-81402.550,-39100.750,-48078.050,-43990.520,-149902.100,0.000
-42823.410,-43550.150,-44666.890,-81446.480,-39106.650,-48081.100,-44002.430,-149933.600,0.000
-42827.780,-43554.530,-44667.550,-81463.590,-39108.920,-48087.460,-44005.660,-149963.100,0.000
-42831.430,-43560.230,-44676.380,-81500.300,-39117.900,-48092.980,-44019.130,-149991.300,0.000
-42832.600,-43562.440,-44681.680,-81589.630,-39124.470,-48094.050,-44028.390,-150020.100,0.000
-42839.730,-43569.680,-44689.520,-81670.990,-39132.130,-48099.580,-44037.760,-150050.700,0.000
-42855.730,-43587.200,-44717.100,-81843.810,-39155.210,-48113.320,-44068.270,-150084.000,0.000
-42867.510,-43598.390,-44731.520,-82010.390,-39167.130,-48123.300,-44080.970,-150114.100,0.000
-42872.570,-43599.850,-44741.720,-82193.560,-39172.820,-48123.040,-44091.200,-150141.100,0.000
-42868.170,-43591.820,-44737.690,-82403.200,-39168.860,-48115.380,-44091.300,-150166.400,0.000
-42862.290,-43584.540,-44726.780,-82552.160,-39162.100,-48111.540,-44086.530,-150190.700,0.000
-42863.490,-43586.910,-44731.090,-82729.300,-39169.420,-48116.340,-44099.800,-150216.000,0.000
-42865.000,-43589.210,-44726.070,-82847.130,-39169.410,-48119.330,-44098.410,-150239.100,0.000
-42866.680,-43591.480,-44727.940,-82940.680,-39171.450,-48118.590,-44100.500,-150259.900,0.000
-42866.750,-43592.860,-44729.110,-83031.010,-39171.870,-48120.910,-44098.000,-150277.900,0.000
-42867.550,-43594.980,-44727.640,-83043.910,-39168.800,-48125.280,-44090.340,-150292.400,0.000
-42867.790,-43597.180,-44733.680,-83079.730,-39171.390,-48125.900,-44093.700,-150307.500,0.000
-42865.840,-43597.250,-44727.640,-83061.940,-39167.560,-48127.840,-44084.860,-150323.000,0.000
-42871.710,-43605.590,-44734.160,-83035.270,-39175.750,-48138.700,-44093.490,-150340.000,0.000
-42875.010,-43610.700,-44735.380,-83018.230,-39180.280,-48145.720,-44098.410,-150354.300,0.000
-42871.460,-43606.410,-44723.470,-82927.420,-39172.480,-48142.050,-44086.790,-150363.100,0.000
-42868.150,-43601.070,-44719.830,-82864.090,-39170.570,-48135.600,-44083.830,-150371.200,0.000
-42862.390,-43593.070,-44705.840,-82751.050,-39159.970,-48129.630,-44067.770,-150376.900,0.000
-42860.960,-43590.700,-44703.370,-82636.920,-39155.740,-48127.740,-44063.430,-150382.700,0.000
-42863.690,-43593.700,-44705.800,-82554.200,-39155.810,-48129.530,-44061.030,-150390.700,0.000
-42868.520,-43599.530,-44707.430,-82414.450,-39156.130,-48133.550,-44054.970,-150398.000,0.000
-42872.740,-43604.820,-44716.390,-82303.020,-39163.110,-48136.600,-44060.410,-150403.800,0.000
-42871.860,-43602.960,-44709.690,-82142.400,-39158.710,-48135.960,-44050.350,-150406.000,0.000
-42874.210,-43603.470,-44711.270,-81989.900,-39160.080,-48135.350,-44051.580,-150407.900,0.000
-42875.640,-43602.650,-44710.230,-81876.020,-39159.430,-48132.060,-44050.320,-150410.000,0.000
-42875.940,-43600.210,-44702.590,-81706.110,-39152.550,-48128.180,-44041.000,-150409.300,0.000
-42879.430,-43601.800,-44706.970,-81571.600,-39156.220,-48129.140,-44048.290,-150408.500,0.000
-42877.870,-43599.800,-44700.130,-81399.760,-39153.210,-48131.410,-44044.770,-150406.300,0.000
-42869.500,-43593.340,-44695.550,-81244.950,-39150.540,-48128.860,-44046.340,-150403.000,0.000
-42854.040,-43579.500,-44683.200,-81139.700,-39141.000,-48117.870,-44039.450,-150398.000,0.000
-42844.160,-43569.430,-44669.030,-80992.630,-39129.970,-48108.130,-44026.960,-150392.000,0.000
-42846.580,-43571.410,-44673.470,-80891.960,-39134.530,-48106.290,-44032.450,-150388.300,0.000
-42847.360,-43570.780,-44668.200,-80761.350,-39130.850,-48103.110,-44022.200,-150382.700,0.000
-42842.420,-43564.840,-44665.960,-80663.190,-39125.880,-48092.820,-44015.860,-150375.000,0.000
-42833.040,-43556.060,-44660.410,-80639.370,-39118.350,-48080.360,-44008.880,-150367.100,0.000
-42827.160,-43552.040,-44653.660,-80588.070,-39111.680,-48075.220,-44001.900,-150359.200,0.000
-42822.510,-43550.340,-44655.880,-80580.830,-39114.070,-48073.240,-44010.160,-150351.800,0.000
-42808.250,-43537.050,-44638.710,-80534.820,-39101.070,-48062.190,-43998.350,-150340.700,0.000
-42794.570,-43521.330,-44627.330,-80514.500,-39090.330,-48046.200,-43992.050,-150329.000,0.000
-42788.570,-43510.920,-44621.320,-80556.030,-39085.930,-48035.610,-43988.860,-150319.900,0.000
-42787.410,-43504.460,-44612.660,-80538.800,-39079.730,-48028.330,-43978.350,-150309.800,0.000
-42781.800,-43495.910,-44607.630,-80531.070,-39073.670,-48014.790,-43971.550,-150297.300,0.000
-42768.730,-43482.930,-44588.810,-80465.270,-39055.660,-48000.570,-43948.360,-150282.100,0.000
-42758.300,-43474.840,-44581.410,-80416.840,-39046.510,-47993.480,-43940.380,-150267.700,0.000
-42744.550,-43464.240,-44571.720,-80420.130,-39037.690,-47983.770,-43933.600,-150252.700,0.000
-42728.250,-43451.320,-44553.790,-80356.590,-39022.710,-47971.420,-43917.140,-150235.000,0.000
-42718.520,-43444.130,-44547.840,-80304.880,-39016.950,-47963.640,-43912.340,-150217.800,0.000
-42713.450,-43438.830,-44535.390,-80189.190,-39006.680,-47958.440,-43895.650,-150199.300,0.000
-42713.680,-43437.410,-44533.540,-80071.500,-39003.980,-47952.390,-43889.370,-150180.400,0.000
-42710.040,-43430.610,-44526.480,-79983.870,-38997.820,-47941.230,-43878.400,-150160.700,0.000
-42697.690,-43414.500,-44504.620,-79802.980,-38978.920,-47925.960,-43853.260,-150136.000,0.000
-42681.320,-43397.520,-44487.090,-79607.420,-38963.020,-47910.760,-43837.570,-150108.600,0.000
-42666.810,-43384.390,-44463.060,-79331.700,-38943.680,-47899.270,-43812.660,-150080.300,0.000
-42662.110,-43380.870,-44455.360,-79055.480,-38936.980,-47893.390,-43803.710,-150054.500,0.000
-42657.200,-43377.020,-44448.920,-78833.660,-38931.560,-47888.340,-43796.570,-150028.800,0.000
-42648.440,-43370.150,-44435.770,-78564.880,-38919.880,-47882.880,-43782.600,-150000.000,0.000
-42637.820,-43362.050,-44430.670,-78341.770,-38914.500,-47873.510,-43780.310,-149971.500,0.000
-42622.350,-43347.610,-44413.230,-78102.950,-38901.080,-47857.950,-43764.550,-149942.800,0.000
-42611.170,-43336.730,-44407.040,-77926.850,-38897.450,-47846.000,-43764.080,-149915.200,0.000
-42599.660,-43324.750,-44398.600,-77830.000,-38893.650,-47835.420,-43763.290,-149886.600,0.000
-42583.510,-43306.370,-44375.410,-77643.760,-38876.110,-47817.970,-43743.240,-149854.300,0.000
-42570.790,-43290.730,-44360.140,-77430.200,-38863.220,-47800.300,-43729.980,-149822.000,0.000
-42562.920,-43279.540,-44340.720,-77129.490,-38848.350,-47789.060,-43709.320,-149787.900,0.000
-42559.990,-43274.860,-44334.770,-76849.030,-38842.840,-47780.750,-43703.360,-149754.200,0.000
-42555.030,-43270.490,-44330.250,-76669.280,-38838.680,-47771.320,-43699.640,-149722.400,0.000
-42548.910,-43266.600,-44323.090,-76490.710,-38833.840,-47765.050,-43694.980,-149690.500,0.000
-42541.680,-43262.910,-44326.750,-76412.560,-38839.320,-47759.570,-43708.730,-149660.000,0.000
-42525.590,-43248.800,-44314.320,-76357.880,-38832.350,-47746.340,-43705.880,-149628.100,0.000
-42508.700,-43231.620,-44305.470,-76383.800,-38825.780,-47729.650,-43706.570,-149596.500,0.000
-42493.460,-43214.680,-44293.700,-76503.600,-38817.750,-47714.600,-43703.270,-149565.600,0.000
-42479.130,-43197.630,-44271.890,-76548.200,-38802.130,-47699.030,-43686.670,-149532.500,0.000
-42465.100,-43181.190,-44256.770,-76587.040,-38790.540,-47679.710,-43676.920,-149498.900,0.000
-42448.330,-43161.870,-44231.980,-76559.840,-38769.880,-47657.500,-43651.790,-149462.800,0.000
-42436.720,-43148.330,-44220.720,-76569.730,-38757.780,-47638.840,-43638.500,-149427.300,0.000
-42427.760,-43139.180,-44214.570,-76685.610,-38751.520,-47624.190,-43630.750,-149395.000,0.000
-42416.840,-43129.640,-44203.150,-76772.020,-38742.250,-47609.020,-43618.350,-149362.600,0.000
-42403.390,-43119.220,-44198.160,-76898.260,-38738.510,-47594.320,-43617.470,-149329.300,0.000
-42384.930,-43102.520,-44177.470,-76972.000,-38722.930,-47580.160,-43599.410,-149292.300,0.000
-42364.410,-43079.660,-44157.730,-77057.980,-38705.200,-47558.370,-43582.910,-149253.600,0.000
-42338.590,-43049.190,-44131.630,-77212.770,-38682.540,-47528.440,-43560.530,-149215.300,0.000
-42314.000,-43022.200,-44101.930,-77316.700,-38657.830,-47502.220,-43532.240,-149176.700,0.000
-42294.610,-43003.840,-44087.280,-77462.230,-38644.770,-47480.480,-43521.080,-149138.900,0.000
-42272.800,-42982.910,-44062.480,-77560.920,-38623.870,-47457.700,-43497.840,-149098.200,0.000
-42253.480,-42963.480,-44046.120,-77672.090,-38607.680,-47435.960,-43481.950,-149057.300,0.000
-42234.690,-42944.710,-44030.460,-77850.860,-38592.100,-47414.820,-43464.420,-149017.000,0.000
-42216.040,-42926.930,-44009.610,-77982.480,-38573.250,-47395.360,-43441.110,-148974.600,0.000
-42197.880,-42910.510,-43997.870,-78171.510,-38562.760,-47375.090,-43432.790,-148932.600,0.000
-42174.900,-42888.360,-43971.550,-78320.870,-38541.900,-47350.350,-43409.530,-148888.300,0.000
-42154.710,-42868.630,-43951.590,-78462.490,-38525.180,-47327.530,-43393.140,-148843.700,0.000
-42132.310,-42847.650,-43929.740,-78635.880,-38507.170,-47304.590,-43374.500,-148798.500,0.000
-42105.000,-42821.970,-43900.040,-78738.930,-38481.300,-47277.930,-43347.700,-148749.900,0.000
-42081.710,-42798.620,-43884.690,-78912.230,-38466.760,-47251.850,-43341.440,-148703.600,0.000
-42060.980,-42775.340,-43862.270,-79068.920,-38448.920,-47227.740,-43328.300,-148673.300,0.000
-42042.120,-42754.100,-43844.350,-79213.920,-38434.090,-47204.020,-43319.730,-148761.100,0.000
-42021.430,-42732.960,-43824.980,-79384.530,-38419.730,-47179.770,-43310.650,-149084.800,0.000
-42002.950,-42716.290,-43806.190,-79505.630,-38406.750,-47159.570,-43303.360,-149658.700,0.000
-41985.740,-42703.090,-43800.170,-79717.520,-38403.370,-47140.200,-43314.910,-150361.300,0.000
-41961.590,-42683.130,-43777.040,-79905.810,-38387.530,-47117.980,-43311.060,-151059.600,0.000
-41936.640,-42661.570,-43752.920,-80056.850,-38370.490,-47096.790,-43308.130,-151969.800,0.000
-41906.500,-42632.910,-43721.160,-80208.270,-38347.760,-47070.550,-43299.220,-153201.700,0.000
-41873.590,-42598.100,-43683.410,-80300.610,-38319.830,-47037.980,-43286.500,-154486.100,0.000
-41845.980,-42566.800,-43662.640,-80502.880,-38305.580,-47004.360,-43296.660,-155709.500,0.000
-41820.520,-42538.470,-43636.160,-80713.560,-38288.820,-46972.530,-43299.390,-156903.900,0.000
-41800.570,-42517.380,-43617.800,-80903.140,-38277.700,-46944.820,-43305.640,-158252.900,0.000
-41779.090,-42495.960,-43597.490,-81103.240,-38265.130,-46917.320,-43306.490,-159831.300,0.000
-41754.510,-42472.700,-43570.690,-81263.230,-38248.000,-46891.740,-43302.910,-161471.200,0.000
-41728.130,-42448.660,-43551.460,-81547.960,-38237.780,-46866.290,-43314.100,-163136.300,0.000
-41693.500,-42414.950,-43513.160,-81832.260,-38212.330,-46831.690,-43301.510,-164795.300,0.000
-41662.900,-42382.940,-43478.960,-82076.380,-38186.820,-46795.840,-43282.900,-166501.600,0.000
-41636.950,-42354.490,-43449.570,-82344.610,-38164.750,-46767.160,-43261.940,-168284.400,0.000
-41608.750,-42323.640,-43418.340,-82628.080,-38140.140,-46739.320,-43237.170,-170047.100,0.000
-41580.750,-42293.120,-43400.410,-83114.720,-38124.320,-46706.290,-43227.980,-171788.300,0.000
-41554.430,-42264.270,-43374.390,-83681.020,-38104.030,-46673.880,-43205.070,-173356.900,0.000
-41534.420,-42243.620,-43353.890,-84250.770,-38089.270,-46649.810,-43181.200,-174704.100,0.000
-41511.810,-42222.450,-43329.910,-84846.600,-38072.400,-46626.470,-43151.660,-175968.400,0.000
-41485.700,-42196.540,-43299.890,-85450.300,-38048.860,-46598.170,-43116.600,-177206.600,0.000
-41463.610,-42172.280,-43283.320,-86257.630,-38034.280,-46568.740,-43096.920,-178509.900,0.000
-41441.000,-42145.900,-43255.210,-87136.630,-38011.220,-46539.180,-43060.300,-179840.200,0.000
-41418.310,-42119.160,-43226.600,-87979.410,-37985.760,-46509.110,-43018.570,-181141.000,0.000
-41392.210,-42089.570,-43195.140,-88801.690,-37957.640,-46478.060,-42975.890,-182377.400,0.000
-41363.560,-42058.880,-43160.740,-89582.190,-37926.830,-46447.750,-42934.470,-183517.400,0.000
-41333.090,-42028.760,-43137.500,-90502.520,-37904.230,-46416.320,-42907.880,-184704.300,0.000
-41299.340,-41995.980,-43103.840,-91447.520,-37874.610,-46384.350,-42866.720,-185947.100,0.000
-41275.350,-41972.450,-43078.780,-92311.160,-37850.570,-46359.560,-42827.230,-187168.100,0.000
-41254.630,-41952.090,-43053.070,-93075.870,-37824.870,-46334.750,-42781.750,-188289.800,0.000
-41229.340,-41926.730,-43018.150,-93700.700,-37789.660,-46303.540,-42724.810,-189272.000,0.000
-41205.320,-41902.080,-42994.840,-94361.590,-37762.210,-46272.550,-42680.600,-190251.100,0.000
-41175.650,-41872.110,-42958.380,-94918.470,-37724.530,-46241.300,-42618.770,-191198.500,0.000
-41140.950,-41838.860,-42917.560,-95230.950,-37680.570,-46207.960,-42546.680,-192013.500,0.000
-41106.970,-41806.880,-42876.840,-95310.600,-37636.390,-46174.800,-42472.080,-192662.500,0.000
-41081.530,-41781.460,-42842.000,-95189.270,-37598.120,-46146.710,-42404.290,-193172.900,0.000
