EEG 1, EEG 2, EEG 3, EEG 4, EEG 5, EEG 6, EEG 7, EEG 8, TRIG
260258.500,265221.100,280630.200,750000.100,234991.100,295805.300,268237.400,750000.100,0.000
255587.800,260419.600,273403.500,750000.100,230917.100,290271.800,263305.200,750000.100,0.000
251461.500,256177.200,267664.400,750000.100,227299.700,285373.100,258957.600,750000.100,0.000
247780.400,252410.400,262930.700,750000.100,224139.200,281022.400,255195.900,750000.100,0.000
244426.100,248975.500,258654.700,750000.100,221171.300,277108.000,251651.900,750000.100,0.000
241438.300,245923.400,255069.300,750000.100,218592.800,273584.400,248603.600,750000.100,0.000
238685.300,243103.300,251760.800,750000.100,216153.800,270354.600,245680.600,750000.100,0.000
236199.500,240550.600,248846.100,750000.100,213956.100,267422.700,243062.600,750000.100,0.000
233932.600,238226.200,246281.100,750000.100,212010.200,264746.400,240768.400,750000.100,0.000
231792.100,236022.500,243747.200,750000.100,210086.300,262244.300,238483.200,750000.100,0.000
229864.100,234045.900,241598.700,750000.100,208423.700,259962.300,236530.400,750000.100,0.000
228054.500,232194.500,239525.600,750000.100,206813.200,257846.300,234598.600,750000.100,0.000
226404.800,230500.000,237666.800,750000.100,205347.100,255900.700,232854.200,750000.100,0.000
224859.700,228918.800,235997.600,750000.100,204030.600,254074.300,231308.800,750000.100,0.000
223368.100,227392.900,234260.900,750000.100,202679.800,252351.900,229706.500,750000.100,0.000
222029.800,226026.500,232815.200,750000.100,201534.300,250776.600,228372.300,750000.100,0.000
220739.100,224704.900,231356.600,750000.100,200376.500,249277.300,226989.200,750000.100,0.000
219565.100,223497.700,230056.300,750000.100,199326.600,247891.200,225739.800,750000.100,0.000
218468.500,222373.700,228901.300,750000.100,198401.900,246588.600,224658.400,749231.600,0.000
217387.400,221266.900,227644.100,742579.600,197420.500,245348.800,223492.900,746049.400,0.000
216407.000,220270.600,226612.500,724410.100,196589.100,244195.100,222528.200,743251.800,0.000
215467.000,219313.100,225554.800,707116.000,195745.800,243108.100,221512.200,740515.600,0.000
214613.100,218437.500,224618.600,690539.100,194981.500,242104.500,220600.900,737691.100,0.000
213812.500,217622.100,223797.800,675647.900,194319.700,241159.300,219832.000,735398.400,0.000
213002.200,216791.500,222842.700,661547.500,193574.200,240231.500,218946.900,733043.900,0.000
212293.400,216067.600,222106.100,648661.500,192979.100,239384.900,218257.700,731052.400,0.000
211604.800,215362.800,221325.100,636189.900,192353.400,238591.900,217499.300,729067.000,0.000
210969.400,214706.200,220627.500,624011.000,191777.300,237844.900,216808.400,726940.100,0.000
210368.900,214084.900,220024.600,613132.600,191282.000,237102.500,216232.900,725298.300,0.000
209761.700,213462.700,219294.700,602747.800,190717.400,236416.100,215560.900,723594.500,0.000
209230.800,212926.600,218756.200,593260.400,190282.200,235793.000,215063.800,722199.300,0.000
208707.900,212393.100,218161.000,583942.100,189807.500,235190.300,214482.100,720783.400,0.000
208233.200,211903.700,217641.100,574699.900,189377.800,234626.000,213964.700,719212.500,0.000
207790.200,211454.000,217212.000,566539.500,189031.000,234096.100,213563.000,718082.100,0.000
207327.800,210981.100,216642.000,558677.300,188596.100,233576.500,213041.700,716849.600,0.000
206938.700,210582.000,216253.200,551544.600,188279.400,233101.300,212681.600,715902.600,0.000
206557.200,210190.500,215808.300,544435.300,187927.000,232656.100,212242.600,714920.100,0.000
206205.800,209828.700,215422.100,537248.900,187604.700,232235.400,211850.600,713704.600,0.000
205880.000,209496.100,215118.400,531005.300,187359.400,231839.100,211567.800,712683.500,0.000
205531.400,209134.400,214668.300,524941.800,187021.300,231448.100,211163.100,711537.600,0.000
205241.100,208837.700,214389.300,519483.700,186794.800,231092.900,210911.500,710471.800,0.000
204956.700,208545.700,214054.100,513958.800,186534.400,230763.400,210580.200,709432.900,0.000
204702.300,208284.300,213775.300,508255.300,186297.800,230450.000,210284.100,708226.500,0.000
204468.300,208044.100,213570.500,503402.300,186130.000,230156.600,210092.500,707426.800,0.000
204188.000,207752.400,213198.500,498619.100,185854.000,229851.100,209763.100,706471.200,0.000
203970.300,207538.500,213000.400,494370.100,185697.700,229588.500,209591.900,705765.300,0.000
203749.400,207317.600,212735.800,489976.600,185492.000,229337.900,209327.500,704993.600,0.000
203571.700,207131.000,212536.300,485364.900,185321.000,229112.900,209108.400,704027.800,0.000
203410.800,206963.900,212409.300,481534.900,185216.500,228899.800,208988.200,703457.100,0.000
203205.200,206747.300,212114.800,477706.500,185003.000,228669.500,208725.300,702725.400,0.000
203056.400,206589.900,211983.400,474342.900,184895.600,228472.500,208608.900,702223.800,0.000
202893.500,206417.200,211778.700,470802.500,184733.400,228279.100,208395.000,701657.700,0.000
202754.800,206269.300,211619.900,466983.000,184595.300,228104.800,208217.200,700880.900,0.000
202622.400,206136.700,211529.200,463901.600,184521.800,227940.200,208140.200,700493.700,0.000
202453.300,205961.100,211278.800,460764.200,184345.000,227751.900,207929.200,699921.500,0.000
202340.600,205847.800,211190.500,458059.800,184278.600,227615.100,207863.800,699570.600,0.000
202216.500,205718.100,211027.700,455164.300,184154.800,227468.400,207694.700,699159.000,0.000
202125.300,205620.300,210921.200,451969.600,184058.500,227336.400,207558.800,698526.100,0.000
202045.300,205539.800,210886.300,449486.400,184029.300,227222.100,207527.100,698273.600,0.000
201925.200,205418.800,210689.100,446918.900,183899.100,227107.000,207366.600,697846.900,0.000
201851.000,205345.400,210642.100,444750.600,183862.000,227006.200,207337.200,697622.200,0.000
201759.000,205250.600,210517.200,442379.500,183767.800,226898.900,207206.800,697343.100,0.000
201688.600,205176.700,210435.400,439673.700,183693.600,226808.600,207109.000,696836.500,0.000
201631.400,205118.400,210426.100,437652.800,183685.800,226726.400,207106.700,696698.300,0.000
201531.000,205014.600,210250.100,435516.300,183570.300,226633.400,206964.200,696379.400,0.000
201482.000,204964.700,210227.500,433759.300,183554.800,226564.500,206961.500,696253.900,0.000
201415.400,204894.600,210129.500,431785.900,183483.100,226487.200,206857.600,696061.900,0.000
201364.600,204842.000,210070.600,429464.600,183428.300,226419.600,206779.700,695636.200,0.000
201331.700,204812.700,210086.200,427814.600,183442.000,226369.500,206805.900,695579.400,0.000
201257.900,204733.300,209936.000,426031.400,183345.400,226300.000,206683.700,695344.100,0.000
201232.300,204704.300,209937.300,424607.300,183346.500,226248.800,206696.200,695302.800,0.000
201186.300,204651.300,209860.400,422950.100,183287.100,226188.000,206606.000,695187.100,0.000
201164.200,204622.700,209828.600,420933.700,183252.000,226148.900,206553.500,694839.100,0.000
201155.900,204619.500,209870.900,419571.400,183289.300,226128.100,206605.300,694854.900,0.000
201092.800,204559.700,209735.000,418044.100,183208.400,226080.400,206500.500,694661.500,0.000
201074.000,204542.900,209748.900,416862.400,183221.200,226046.200,206530.400,694649.300,0.000
201033.700,204500.800,209683.500,415443.800,183176.000,226003.500,206458.200,694555.800,0.000
201017.200,204483.400,209661.500,413647.900,183149.200,225977.400,206412.600,694214.100,0.000
201019.000,204485.200,209716.900,412504.700,183192.900,225962.000,206468.800,694239.900,0.000
200983.200,204445.700,209608.600,411206.400,183135.400,225945.800,206388.000,694069.400,0.000
200982.900,204443.700,209639.200,410230.800,183161.100,225918.400,206432.900,694064.500,0.000
200969.500,204430.000,209600.000,409013.200,183136.000,225898.500,206383.800,693985.700,0.000
200981.500,204442.800,209604.000,407415.000,183133.600,225904.200,206364.900,693666.400,0.000
200996.600,204460.500,209668.300,406432.400,183187.200,225909.400,206435.600,693682.500,0.000
200963.700,204423.300,209563.300,405298.200,183126.900,225889.300,206353.200,693503.900,0.000
200965.900,204425.800,209596.700,404477.500,183153.200,225878.300,206397.500,693491.600,0.000
200963.000,204417.200,209567.400,403415.800,183136.300,225867.000,206352.800,693415.200,0.000
200992.100,204440.500,209587.100,401966.100,183147.700,225880.700,206347.700,693092.900,0.000
201012.600,204465.600,209660.900,401112.300,183208.900,225889.700,206424.500,693098.700,0.000
200985.400,204438.500,209564.800,400129.800,183158.800,225878.400,206357.900,692925.800,0.000
201000.000,204455.700,209610.200,399462.000,183197.900,225884.300,206417.400,692929.300,0.000
200998.300,204454.500,209583.400,398528.200,183182.300,225882.500,206380.200,692865.300,0.000
201014.400,204463.400,209590.400,397186.100,183180.600,225885.700,206368.600,692562.900,0.000
201034.500,204485.800,209663.700,396439.300,183242.300,225897.800,206452.000,692610.700,0.000
201011.700,204462.500,209576.500,395580.500,183198.800,225892.500,206393.900,692486.900,0.000
201028.900,204478.500,209629.300,395033.400,183242.800,225895.800,206456.500,692549.400,0.000
201031.900,204477.400,209606.000,394203.800,183227.800,225892.200,206416.200,692542.600,0.000
201058.800,204501.500,209621.900,392952.600,183231.200,225905.300,206403.100,692286.100,0.000
201086.000,204528.400,209700.500,392282.100,183293.900,225920.500,206488.000,692365.600,0.000
201066.500,204507.600,209615.700,391518.600,183252.000,225922.200,206434.800,692286.600,0.000
201092.100,204534.300,209671.400,391056.200,183299.600,225936.100,206503.700,692375.600,0.000
201101.400,204543.300,209656.200,390294.300,183294.500,225945.100,206476.100,692365.300,0.000
201132.900,204569.900,209680.300,389099.500,183306.000,225966.000,206471.800,692094.200,0.000
201172.700,204610.800,209771.800,388485.000,183378.200,225990.900,206560.400,692142.300,0.000
201157.600,204594.700,209689.300,387782.800,183338.900,225995.000,206509.000,692006.300,0.000
201178.600,204618.100,209742.900,387378.600,183385.400,226008.900,206576.000,692033.300,0.000
201189.800,204629.800,209730.100,386680.000,183383.200,226023.500,206552.300,691973.900,0.000
201213.500,204654.500,209746.200,385535.100,183389.700,226057.000,206546.900,691638.800,0.000
201243.800,204686.200,209827.800,384968.600,183452.700,226063.000,206630.200,691623.900,0.000
201218.900,204656.900,209737.600,384318.100,183402.600,226049.400,206568.900,691430.700,0.000
201245.500,204684.000,209797.800,383980.300,183452.700,226068.600,206639.000,691417.800,0.000
201258.900,204695.700,209787.800,383355.200,183452.800,226084.200,206617.600,691325.900,0.000
201283.500,204717.400,209803.900,382278.900,183459.100,226101.900,206608.400,690964.400,0.000
201305.400,204743.200,209881.200,381770.800,183520.500,226116.800,206688.700,690930.600,0.000
201285.800,204726.800,209801.200,381190.700,183483.300,226124.500,206642.900,690743.500,0.000
201302.500,204749.300,209852.100,380894.800,183526.300,226141.200,206708.300,690706.300,0.000
201308.700,204754.400,209833.100,380298.200,183515.700,226145.400,206673.300,690576.300,0.000
201341.500,204783.200,209854.600,379264.500,183522.700,226165.400,206664.800,690186.500,0.000
201378.700,204824.200,209943.100,378807.300,183591.600,226191.400,206752.800,690123.400,0.000
201359.600,204807.800,209860.600,378240.600,183547.900,226193.300,206695.200,689876.600,0.000
201368.900,204821.600,209905.300,377955.800,183580.300,226199.400,206750.000,689787.500,0.000
201365.400,204812.100,209879.100,377368.900,183562.200,226193.800,206710.100,689613.300,0.000
201383.800,204825.900,209887.200,376339.300,183559.500,226207.500,206695.000,689169.400,0.000
201404.300,204844.200,209962.000,375897.000,183614.400,226218.200,206772.400,689061.700,0.000
201384.300,204817.500,209876.800,375321.600,183566.800,226210.900,206708.300,688785.600,0.000
201400.100,204833.800,209922.900,375030.800,183602.100,226215.900,206766.600,688668.800,0.000
201399.900,204831.500,209896.500,374471.800,183582.700,226212.600,206724.600,688480.700,0.000
201421.300,204851.400,209909.500,373493.500,183581.700,226228.600,206711.500,688039.800,0.000
201442.300,204875.700,209986.300,373129.100,183638.400,226239.700,206789.600,687950.200,0.000
201406.900,204843.300,209883.800,372531.000,183579.200,226227.200,206712.600,687652.400,0.000
201429.300,204870.300,209939.200,372241.400,183623.700,226245.400,206783.300,687542.200,0.000
201428.000,204867.000,209918.100,371713.400,183610.600,226244.400,206750.600,687373.800,0.000
201443.700,204878.400,209929.800,370795.400,183611.200,226256.800,206741.400,686975.800,0.000
201469.800,204908.100,210012.200,370512.200,183673.100,226272.900,206825.600,686952.600,0.000
201443.200,204879.600,209912.200,369897.800,183613.500,226266.600,206747.200,686800.200,0.000
201456.400,204896.000,209958.800,369585.200,183648.500,226271.500,206806.000,686731.600,0.000
201453.200,204894.200,209937.200,369096.300,183634.600,226282.600,206775.500,686678.400,0.000
201470.900,204907.000,209949.800,368233.900,183633.300,226280.000,206766.400,686586.400,0.000
201473.400,204910.300,210008.300,367995.100,183673.100,226271.300,206831.600,686739.100,0.000
201426.000,204859.100,209884.300,367333.800,183591.800,226245.400,206729.000,686588.600,0.000
201440.900,204875.500,209935.200,367005.900,183629.700,226256.100,206788.300,686623.200,0.000
201431.800,204865.900,209912.200,366540.700,183611.800,226247.300,206749.800,686633.000,0.000
201441.300,204870.500,209916.200,365722.000,183603.100,226245.100,206730.300,686412.300,0.000
201460.700,204893.200,209993.200,365570.700,183660.700,226256.000,206810.500,686574.800,0.000
201434.400,204866.900,209886.600,364926.800,183596.600,226248.800,206722.700,686433.600,0.000
201451.300,204884.500,209935.500,364599.800,183633.500,226257.600,206783.900,686450.200,0.000
201441.200,204871.800,209908.400,364166.600,183610.600,226246.200,206744.500,686461.700,0.000
201447.100,204872.000,209911.000,363380.700,183595.500,226238.000,206717.700,686291.500,0.000
201460.300,204885.100,209984.500,363301.600,183647.400,226237.600,206791.300,686403.600,0.000
201429.700,204853.100,209868.700,362616.000,183577.400,226228.400,206689.100,686301.100,0.000
201432.500,204860.400,209905.600,362220.000,183601.500,226230.000,206737.700,686272.300,0.000
201409.700,204840.400,209871.400,361780.100,183573.800,226212.500,206693.500,686255.400,0.000
201413.500,204843.500,209877.800,361046.800,183567.400,226214.800,206680.700,686201.100,0.000
201429.500,204859.900,209956.900,361087.800,183626.700,226219.400,206767.300,686341.600,0.000
201384.800,204811.600,209819.000,360336.400,183533.100,226193.900,206641.300,686251.900,0.000
201385.300,204810.700,209846.100,359827.700,183546.100,226181.800,206676.600,686229.900,0.000
201379.700,204800.200,209824.800,359402.400,183529.200,226171.400,206647.600,686242.500,0.000
201386.800,204803.000,209832.600,358711.000,183520.400,226167.400,206636.100,686239.200,0.000
201391.700,204812.900,209905.600,358819.700,183571.200,226162.800,206718.200,686486.800,0.000
201335.400,204762.200,209755.000,358010.200,183472.200,226138.200,206585.000,686354.100,0.000
201341.800,204780.100,209795.600,357459.500,183503.200,226152.200,206641.000,686348.900,0.000
201315.300,204756.700,209765.900,357023.400,183479.900,226136.000,206607.100,686408.000,0.000
201308.700,204742.200,209765.000,356361.100,183465.000,226119.500,206589.400,686308.600,0.000
201315.800,204749.000,209837.500,356534.900,183518.200,226121.100,206674.200,686526.700,0.000
201272.200,204701.400,209689.800,355694.600,183419.900,226091.900,206535.700,686439.400,0.000
201285.500,204715.500,209731.200,355095.600,183448.700,226086.500,206585.400,686493.900,0.000
201286.000,204715.400,209722.800,354682.800,183442.200,226089.800,206566.900,686629.400,0.000
201297.900,204724.800,209740.500,354060.500,183441.600,226091.800,206566.700,686541.300,0.000
201300.600,204733.800,209813.400,354313.300,183492.100,226085.300,206648.400,686747.800,0.000
201252.300,204688.300,209658.100,353429.000,183386.300,226062.500,206499.500,686655.300,0.000
201262.400,204697.500,209696.500,352768.600,183409.300,226065.100,206544.900,686626.900,0.000
201252.100,204683.300,209679.500,352356.800,183395.400,226056.100,206523.500,686642.800,0.000
201261.600,204689.600,209698.500,351786.000,183401.100,226064.200,206533.400,686688.800,0.000
201273.100,204700.300,209780.400,352126.300,183463.000,226059.600,206624.100,687037.600,0.000
201229.100,204658.100,209626.300,351202.000,183362.100,226043.100,206476.000,686867.400,0.000
201238.800,204672.700,209664.300,350486.000,183387.900,226054.300,206528.100,686796.800,0.000
201231.700,204665.900,209652.000,350087.000,183379.200,226049.200,206514.000,686875.600,0.000
201243.100,204672.300,209671.500,349552.100,183384.400,226052.900,206523.400,686825.900,0.000
201269.800,204702.700,209771.800,349965.900,183461.800,226068.300,206634.100,687269.600,0.000
201230.900,204665.700,209620.400,349005.300,183361.200,226054.600,206481.700,687096.800,0.000
201246.100,204685.300,209666.200,348247.800,183392.600,226064.100,206532.700,687003.700,0.000
201249.600,204689.600,209668.300,347876.100,183395.500,226068.100,206528.700,687085.900,0.000
201265.800,204700.100,209694.800,347383.600,183407.000,226074.000,206544.300,687025.400,0.000
201294.100,204732.000,209797.800,347860.600,183488.900,226093.100,206661.100,687498.900,0.000
201262.200,204706.000,209649.800,346863.700,183395.300,226094.100,206513.100,687334.500,0.000
201279.800,204730.200,209696.700,346046.300,183428.600,226110.300,206569.200,687222.600,0.000
201278.300,204725.500,209698.200,345667.700,183428.600,226106.100,206562.700,687312.900,0.000
201304.900,204745.000,209739.600,345203.400,183452.800,226123.400,206593.600,687285.600,0.000
201336.500,204776.000,209846.800,345721.900,183535.600,226139.900,206708.900,687781.400,0.000
201295.700,204734.900,209681.400,344672.700,183423.200,226121.400,206536.000,687592.600,0.000
201325.200,204770.500,209735.600,343809.500,183465.600,226149.900,206601.500,687464.900,0.000
201346.000,204794.100,209759.000,343441.100,183490.500,226175.100,206623.200,687561.400,0.000
201372.500,204818.300,209799.900,342994.800,183512.800,226192.800,206649.000,687528.300,0.000
201398.300,204842.400,209899.300,343552.800,183589.000,226205.900,206762.900,688029.400,0.000
201365.400,204807.400,209739.900,342494.800,183486.300,226199.300,206602.600,687846.400,0.000
201379.200,204822.200,209779.900,341612.200,183512.200,226205.800,206648.300,687719.300,0.000
201391.500,204835.500,209796.300,341276.800,183529.200,226218.000,206659.000,687835.600,0.000
201413.600,204852.000,209837.200,340887.000,183552.200,226231.800,206687.000,687841.000,0.000
201441.200,204881.800,209944.400,341527.300,183635.100,226247.300,206806.700,688403.400,0.000
201414.300,204861.000,209789.700,340498.500,183536.700,226260.500,206649.000,688269.500,0.000
201443.900,204890.900,209841.500,339649.200,183576.000,226276.000,206709.500,688186.800,0.000
201457.700,204901.200,209857.600,339384.700,183591.300,226281.700,206727.200,688349.600,0.000
201465.300,204900.100,209878.100,339068.300,183596.000,226278.000,206741.800,688389.600,0.000
201485.400,204919.600,209973.200,339817.000,183669.900,226285.100,206856.000,689001.100,0.000
201450.700,204887.200,209806.700,338857.300,183564.000,226285.900,206690.900,688883.300,0.000
201481.900,204921.300,209864.700,338095.400,183607.400,226310.300,206751.700,688824.300,0.000
201489.700,204930.700,209885.200,337950.200,183623.100,226314.200,206762.200,689008.600,0.000
201520.400,204961.900,209938.400,337813.400,183658.400,226341.000,206806.600,689108.500,0.000
201538.700,204986.300,210040.300,338746.100,183739.100,226351.400,206924.800,689768.900,0.000
201490.200,204940.900,209858.800,337922.800,183616.700,226330.600,206738.600,689680.000,0.000
201519.800,204968.100,209910.200,337299.100,183652.000,226350.300,206798.000,689645.300,0.000
201527.200,204970.200,209922.400,337320.800,183660.500,226350.600,206806.700,689870.800,0.000
201551.000,204981.000,209958.100,337348.300,183677.800,226355.000,206832.900,689997.900,0.000
201586.000,205015.400,210067.800,338482.500,183764.100,226371.000,206958.400,690713.400,0.000
201554.300,204983.200,209899.000,337819.400,183654.400,226369.600,206786.400,690666.800,0.000
201580.400,205013.400,209951.600,337336.200,183692.500,226393.000,206845.600,690657.100,0.000
201587.600,205024.600,209974.200,337517.000,183712.600,226401.500,206862.000,690919.900,0.000
201596.700,205034.300,210009.300,337698.600,183730.500,226406.800,206891.500,691087.000,0.000
201610.900,205054.500,210112.000,338971.000,183810.500,226414.200,207009.300,691833.800,0.000
201553.200,205007.300,209923.400,338395.300,183684.700,226397.200,206816.100,691788.100,0.000
201569.000,205028.500,209962.300,338005.700,183711.800,226409.800,206868.200,691778.900,0.000
201582.500,205038.500,209984.300,338300.900,183730.400,226417.900,206888.700,692056.800,0.000
201617.600,205061.300,210036.300,338613.700,183761.400,226434.600,206929.200,692249.200,0.000
201658.300,205098.500,210155.700,340035.800,183856.200,226457.400,207064.500,693024.400,0.000
201622.000,205062.800,209976.600,339595.300,183739.500,226454.700,206881.500,692978.600,0.000
201642.600,205082.500,210019.400,339344.900,183770.300,226466.200,206930.700,692956.900,0.000
201655.800,205091.300,210043.500,339824.200,183792.100,226473.400,206953.100,693230.700,0.000
201664.500,205097.700,210078.200,340316.400,183806.400,226474.200,206980.200,693406.700,0.000
201679.900,205121.600,210182.700,341932.800,183886.600,226486.800,207100.600,694177.600,0.000
201637.200,205086.900,210004.100,341693.700,183769.900,226481.100,206914.500,694153.700,0.000
201658.600,205112.200,210053.300,341635.200,183803.700,226486.600,206971.500,694151.200,0.000
201667.500,205124.600,210077.600,342315.100,183826.100,226500.100,206996.200,694459.500,0.000
201698.400,205147.400,210130.500,343027.100,183859.500,226518.900,207042.800,694696.400,0.000
201730.200,205171.200,210243.800,344882.000,183948.600,226527.300,207171.900,695542.800,0.000
201683.300,205118.700,210051.300,344811.300,183817.200,226503.500,206966.100,695555.800,0.000
201703.000,205135.600,210094.200,344927.600,183845.400,226512.700,207017.000,695600.400,0.000
201715.000,205148.400,210123.900,345818.700,183872.400,226525.800,207050.300,695992.100,0.000
201735.100,205170.200,210173.700,346721.800,183904.500,226545.800,207098.400,696315.900,0.000
201759.100,205198.300,210287.100,348761.600,183993.600,226553.300,207230.300,697252.300,0.000
201713.000,205153.900,210097.700,348867.300,183867.800,226537.000,207033.100,697361.100,0.000
201734.700,205177.500,210144.600,349123.300,183900.700,226555.800,207092.800,697505.400,0.000
201741.800,205180.100,210166.800,350118.900,183920.500,226555.800,207116.100,697989.500,0.000
201761.300,205189.800,210209.600,351100.000,183943.200,226561.400,207154.300,698395.900,0.000
201781.800,205209.800,210318.800,353218.700,184028.200,226566.900,207288.600,699440.200,0.000
201734.600,205165.900,210130.200,353374.800,183903.500,226552.700,207093.800,699658.400,0.000
201746.900,205183.300,210170.300,353653.500,183930.800,226559.700,207147.100,699909.300,0.000
201754.400,205193.600,210196.800,354679.700,183957.500,226569.500,207183.800,700519.600,0.000
201777.300,205215.600,210249.500,355704.300,183992.200,226587.600,207238.000,701077.200,0.000
201809.100,205252.200,210373.800,357866.300,184094.400,226605.800,207389.700,702289.900,0.000
201762.400,205207.200,210183.900,358047.000,183967.500,226593.300,207196.100,702654.700,0.000
201778.900,205222.800,210224.500,358333.900,183994.100,226601.500,207246.700,703047.100,0.000
201788.200,205224.000,210250.400,359373.900,184018.100,226600.100,207279.000,703813.100,0.000
201814.300,205240.800,210301.300,360374.100,184050.500,226613.000,207331.600,704518.400,0.000
201838.200,205268.500,210416.700,362493.500,184139.800,226621.800,207470.900,705898.200,0.000
201797.100,205227.100,210225.200,362564.500,184011.900,226615.900,207269.200,706394.800,0.000
201812.900,205244.400,210264.100,362720.500,184036.500,226617.600,207318.000,706907.800,0.000
201814.900,205247.100,210286.800,363604.900,184059.700,226610.800,207351.000,707832.700,0.000
201831.600,205261.800,210331.400,364423.600,184089.800,226624.300,207397.900,708713.700,0.000
201854.300,205285.000,210445.200,366347.700,184179.800,226633.600,207536.300,710327.600,0.000
201811.900,205247.700,210255.600,366210.800,184053.500,226627.500,207333.500,710980.800,0.000
201833.700,205275.800,210299.800,366098.700,184087.000,226648.700,207390.100,711567.600,0.000
201839.500,205278.700,210319.300,366662.100,184104.700,226649.500,207416.200,712500.300,0.000
201857.400,205285.900,210353.900,367098.200,184121.000,226652.900,207447.100,713165.300,0.000
201884.500,205312.500,210467.900,368614.900,184210.800,226660.600,207581.700,713776.800,0.000
201845.300,205272.600,210275.400,368073.300,184077.900,226647.100,207370.000,713841.500,0.000
201860.700,205287.600,210310.000,367562.100,184097.700,226655.900,207415.800,713843.600,0.000
201858.500,205287.000,210325.000,367770.300,184112.700,226655.600,207440.900,713855.900,0.000
201872.600,205301.500,210362.500,367899.000,184135.100,226665.800,207479.900,713866.900,0.000
201895.400,205331.400,210480.200,369196.200,184230.100,226680.700,207624.300,713903.400,0.000
201849.000,205289.900,210284.400,368485.400,184099.100,226670.300,207412.000,713889.900,0.000
201876.800,205321.000,210335.400,367845.300,184134.500,226695.000,207470.300,713888.200,0.000
201879.000,205317.600,210355.500,367957.400,184148.300,226691.900,207492.400,713895.600,0.000
201898.600,205325.500,210395.400,368010.100,184169.800,226691.900,207529.200,713903.900,0.000
201931.300,205358.200,210522.000,369255.100,184269.600,226703.300,207675.800,713935.300,0.000
201888.900,205317.100,210329.900,368542.800,184137.100,226692.200,207459.000,713919.600,0.000
201901.000,205335.500,210366.400,367912.000,184161.000,226703.700,207507.300,713912.200,0.000
201900.000,205336.100,210386.600,368062.500,184179.800,226699.300,207535.000,713920.800,0.000
201914.600,205350.000,210427.900,368161.800,184204.700,226710.600,207575.100,713928.300,0.000
201938.800,205383.000,210551.800,369431.500,184305.500,226730.800,207726.900,713957.700,0.000
201890.300,205331.100,210351.900,368773.700,184166.800,226698.600,207505.900,713941.500,0.000
201898.700,205341.100,210381.700,368191.400,184185.300,226707.400,207548.600,713935.500,0.000
201897.100,205340.800,210399.900,368365.600,184203.900,226707.100,207579.200,713943.800,0.000
201911.500,205353.000,210437.000,368444.700,184226.800,226717.600,207623.800,713947.000,0.000
201931.300,205376.400,210552.800,369691.000,184316.800,226722.300,207768.200,713974.900,0.000
201885.600,205330.400,210353.400,368995.800,184175.800,226703.500,207538.500,713958.800,0.000
201909.300,205354.100,210392.000,368310.700,184202.300,226727.100,207583.200,713953.600,0.000
201915.000,205358.200,210410.700,368280.200,184217.200,226727.600,207599.800,713952.100,0.000
201936.000,205376.700,210450.400,368091.400,184236.500,226733.700,207621.300,713952.200,0.000
201961.500,205402.000,210567.200,369028.800,184323.000,226742.000,207745.000,713973.300,0.000
201919.700,205355.600,210367.100,368069.400,184172.600,226723.300,207491.800,713949.500,0.000
201942.300,205381.100,210406.000,367158.200,184192.600,226743.700,207519.800,713934.100,0.000
201945.700,205385.800,210427.100,366957.000,184209.200,226748.700,207538.000,713932.100,0.000
201963.600,205401.700,210461.200,366615.000,184224.900,226760.200,207559.200,713927.400,0.000
201989.400,205429.000,210577.100,367422.900,184312.100,226770.800,207686.400,713942.400,0.000
201938.000,205372.800,210370.700,366399.900,184158.500,226748.400,207432.500,713909.100,0.000
201958.100,205399.000,210408.100,365455.700,184181.400,226770.800,207469.000,713893.600,0.000
201966.400,205410.000,210433.800,365205.400,184206.400,226782.900,207501.300,713889.800,0.000
201988.100,205429.700,210472.200,364806.300,184230.600,226798.100,207533.800,713882.500,0.000
202014.800,205458.000,210591.400,365545.700,184322.900,226805.000,207668.000,713896.400,0.000
201969.800,205404.600,210390.900,364525.600,184173.200,226782.100,207418.800,713865.900,0.000
201987.300,205419.400,210424.200,363578.400,184190.400,226789.200,207447.000,713847.600,0.000
201999.800,205433.700,210454.400,363299.100,184217.400,226795.600,207476.900,713845.300,0.000
202019.500,205451.300,210486.300,362832.700,184235.500,226807.000,207505.000,713835.900,0.000
202043.800,205479.100,210600.100,363480.300,184323.200,226820.400,207635.600,713849.400,0.000
202009.600,205440.600,210412.600,362452.400,184185.900,226816.100,207402.100,713825.200,0.000
202032.200,205463.100,210448.600,361491.200,184206.600,226822.400,207440.000,713811.900,0.000
202039.700,205472.500,210472.600,361167.800,184230.800,226837.600,207475.400,713808.600,0.000
202058.700,205487.500,210506.100,360665.100,184251.200,226854.300,207509.400,713798.800,0.000
202078.200,205507.200,210617.500,361292.700,184336.900,226856.100,207641.700,713808.100,0.000
202034.600,205456.200,210424.400,360332.000,184195.500,226837.600,207404.800,713779.400,0.000
202049.300,205472.700,210454.900,359465.300,184213.700,226847.400,207437.000,713761.300,0.000
202048.900,205477.900,210475.800,359234.800,184237.300,226850.000,207467.700,713755.900,0.000
202062.700,205496.000,210509.700,358836.400,184261.000,226864.900,207507.300,713752.900,0.000
202087.500,205525.500,210629.800,359573.900,184356.300,226878.900,207656.300,713770.300,0.000
202052.900,205482.500,210445.500,358782.300,184218.700,226868.400,207427.200,713749.600,0.000
202073.100,205502.000,210478.400,358066.800,184238.200,226881.000,207466.400,713735.900,0.000
202086.300,205513.200,210509.400,357963.200,184265.500,226883.300,207503.600,713737.800,0.000
202104.200,205526.800,210542.200,357638.000,184286.000,226884.800,207535.900,713734.900,0.000
202133.600,205559.100,210668.000,358422.200,184387.900,226898.200,207688.700,713755.600,0.000
202093.800,205511.000,210486.600,357724.800,184254.800,226882.900,207464.200,713738.700,0.000
202104.700,205523.500,210517.500,357105.700,184272.400,226890.200,207497.900,713727.400,0.000
202106.400,205534.000,210539.600,357041.800,184297.700,226898.500,207535.600,713729.900,0.000
202124.200,205552.400,210570.300,356736.700,184317.700,226912.100,207572.500,713728.600,0.000
202148.800,205578.700,210689.400,357517.800,184409.600,226922.600,207719.500,713745.900,0.000
202113.900,205533.100,210509.800,356879.400,184274.900,226907.400,207492.000,713727.400,0.000
202131.000,205551.800,210542.200,356318.800,184292.200,226916.300,207523.800,713720.900,0.000
202136.800,205563.300,210566.600,356283.600,184316.800,226923.200,207559.500,713724.300,0.000
202148.500,205578.700,210594.000,355982.500,184337.200,226945.800,207592.400,713721.300,0.000
202169.400,205608.900,210713.500,356765.700,184433.100,226953.200,207742.000,713742.000,0.000
202125.600,205561.100,210530.700,356173.800,184299.500,226928.500,207519.500,713724.400,0.000
202145.900,205588.500,210568.100,355663.300,184326.700,226952.500,207563.600,713717.800,0.000
202153.000,205599.000,210594.500,355645.700,184355.500,226964.200,207604.400,713721.800,0.000
202166.100,205610.000,210618.800,355342.300,184370.900,226975.900,207634.600,713720.600,0.000
202179.900,205624.500,210728.500,356091.200,184455.400,226975.800,207770.700,713736.500,0.000
202136.600,205571.600,210546.300,355528.800,184317.600,226948.400,207541.000,713719.100,0.000
202154.200,205591.000,210577.400,355046.600,184336.100,226959.900,207575.700,713712.100,0.000
202166.600,205608.400,210602.800,355029.000,184361.400,226973.100,207613.700,713717.000,0.000
202161.100,205599.500,210606.200,354679.700,184356.100,226963.600,207620.800,713709.800,0.000
202165.600,205610.300,210707.400,355392.600,184433.400,226960.700,207750.700,713723.000,0.000
202124.100,205557.300,210527.200,354851.400,184299.200,226937.700,207526.800,713709.400,0.000
202140.200,205572.400,210556.200,354378.300,184317.500,226943.700,207558.000,713702.800,0.000
202143.500,205582.700,210578.800,354336.500,184340.800,226951.800,207589.900,713704.000,0.000
202156.300,205594.300,210602.000,353974.800,184352.200,226957.600,207612.700,713701.600,0.000
202180.800,205624.800,210720.500,354683.100,184446.400,226967.800,207758.600,713720.500,0.000
202133.400,205571.000,210537.100,354160.000,184308.700,226945.100,207533.800,713704.100,0.000
202143.700,205586.200,210563.900,353709.000,184322.000,226956.100,207566.100,713697.800,0.000
202146.800,205593.300,210582.900,353678.700,184342.300,226961.300,207598.900,713700.100,0.000
202167.500,205614.900,210611.500,353317.600,184365.600,226982.300,207632.700,713698.900,0.000
202182.000,205631.000,210720.500,353992.600,184452.200,226978.200,207766.100,713714.800,0.000
202131.000,205571.100,210533.200,353481.400,184311.700,226947.600,207537.500,713698.300,0.000
202141.500,205586.100,210559.200,353059.300,184325.100,226960.900,207571.400,713692.800,0.000
202146.200,205595.400,210581.000,353045.800,184347.600,226969.700,207608.300,713695.800,0.000
202155.700,205603.300,210595.700,352662.200,184354.500,226973.300,207625.100,713690.900,0.000
202178.100,205629.400,210712.200,353322.400,184441.200,226975.500,207760.700,713707.700,0.000
202144.300,205586.300,210542.800,352842.300,184315.300,226958.500,207548.800,713694.400,0.000
202163.700,205607.500,210576.500,352433.600,184335.700,226973.500,207583.800,713686.700,0.000
202170.100,205614.100,210596.300,352402.900,184358.000,226979.300,207613.200,713689.400,0.000
202185.000,205627.200,210615.800,351993.700,184372.500,226995.200,207635.400,713688.900,0.000
202205.000,205654.900,210732.400,352611.600,184464.600,227000.600,207777.900,713702.300,0.000
202159.700,205605.200,210555.500,352100.200,184333.400,226984.800,207559.000,713685.400,0.000
202173.400,205620.700,210582.600,351654.500,184348.300,226998.800,207588.800,713679.600,0.000
202184.900,205630.300,210602.900,351571.300,184371.400,226994.500,207620.100,713683.300,0.000
202203.500,205649.100,210621.000,351089.300,184384.600,227014.900,207639.000,713678.000,0.000
202223.700,205676.400,210735.800,351630.000,184473.700,227027.000,207778.600,713689.100,0.000
202183.300,205627.500,210565.400,351092.500,184348.200,227009.500,207568.700,713677.800,0.000
202195.400,205640.100,210594.200,350637.800,184364.400,227017.400,207598.200,713672.800,0.000
202189.700,205642.200,210606.300,350544.800,184378.000,227018.100,207622.100,713671.900,0.000
202200.900,205653.200,210621.200,350063.300,184382.500,227025.900,207633.000,713663.600,0.000
202234.800,205687.500,210748.900,350637.800,184477.500,227037.900,207776.100,713679.400,0.000
202203.200,205643.800,210583.800,350169.400,184354.000,227020.800,207570.200,713664.800,0.000
202225.100,205661.900,210616.000,349794.200,184374.000,227034.400,207608.600,713661.400,0.000
202232.400,205666.500,210636.600,349772.700,184395.300,227038.200,207638.500,713662.400,0.000
202234.400,205669.400,210642.500,349344.600,184393.700,227035.500,207640.200,713656.300,0.000
202253.700,205700.500,210762.500,349962.100,184485.400,227043.500,207783.100,713671.800,0.000
202213.000,205652.200,210595.800,349562.900,184361.600,227021.900,207578.300,713658.000,0.000
202233.800,205673.400,210631.600,349252.400,184385.700,227040.200,207618.900,713654.100,0.000
202240.200,205684.600,210655.800,349286.700,184410.300,227050.700,207653.800,713655.100,0.000
202261.300,205701.900,210678.900,348907.700,184426.000,227067.400,207674.200,713652.600,0.000
202282.700,205725.300,210796.500,349554.400,184515.600,227071.900,207813.900,713670.600,0.000
202231.400,205663.600,210613.900,349182.400,184379.200,227038.800,207598.300,713654.800,0.000
202244.000,205676.800,210641.500,348901.300,184397.800,227051.200,207631.700,713650.900,0.000
202233.800,205672.200,210648.100,348944.200,184406.700,227040.200,207646.200,713651.100,0.000
202238.600,205675.900,210652.600,348551.800,184404.200,227038.600,207647.500,713646.200,0.000
202274.600,205719.800,210787.500,349206.100,184511.300,227062.400,207806.300,713665.700,0.000
202228.700,205670.600,210619.300,348866.600,184386.500,227042.400,207604.900,713650.100,0.000
202234.700,205680.700,210640.600,348604.700,184394.700,227046.600,207630.600,713645.900,0.000
202239.800,205687.500,210661.800,348673.900,184414.000,227048.200,207658.200,713650.300,0.000
202256.100,205699.800,210677.500,348298.600,184421.200,227067.500,207667.600,713646.500,0.000
202277.100,205718.600,210793.700,348946.700,184508.600,227056.100,207806.700,713658.900,0.000
202238.400,205673.600,210629.300,348640.400,184391.000,227037.600,207610.900,713648.300,0.000
202250.800,205688.800,210654.800,348400.300,184409.000,227054.300,207647.100,713646.800,0.000
202254.500,205698.500,210673.100,348479.200,184430.200,227059.500,207679.200,713649.100,0.000
202267.600,205712.400,210687.400,348106.500,184437.000,227070.800,207687.900,713646.400,0.000
202292.700,205741.400,210810.400,348759.300,184529.900,227075.700,207829.300,713661.200,0.000
202248.600,205686.900,210641.400,348458.500,184403.200,227047.700,207623.000,713648.300,0.000
202260.400,205701.100,210668.600,348222.600,184418.400,227055.400,207651.100,713643.900,0.000
202256.400,205700.800,210680.800,348311.100,184432.000,227052.300,207670.400,713646.500,0.000
202262.200,205706.500,210685.200,347928.800,184431.800,227059.900,207671.900,713643.900,0.000
202290.500,205739.200,210806.800,348552.800,184525.800,227075.800,207821.700,713660.900,0.000
202251.000,205691.800,210640.300,348203.400,184403.600,227061.400,207625.300,713647.000,0.000
202264.400,205707.900,210665.600,347900.300,184418.300,227072.800,207652.000,713645.000,0.000
202273.300,205723.400,210689.200,347921.900,184444.600,227089.400,207688.100,713648.600,0.000
202276.400,205726.100,210688.800,347468.100,184440.300,227092.700,207688.800,713642.000,0.000
202294.000,205747.200,210803.700,348044.500,184525.400,227089.600,207823.600,713655.200,0.000
202255.900,205699.300,210642.200,347702.800,184406.200,227066.200,207625.900,713643.100,0.000
202273.800,205718.800,210675.000,347414.300,184423.700,227080.400,207657.400,713638.700,0.000
202278.800,205727.500,210695.300,347434.500,184442.900,227084.400,207682.900,713636.500,0.000
202288.500,205731.500,210703.200,346991.700,184444.800,227088.700,207685.800,713630.300,0.000
202319.700,205767.000,210832.600,347588.300,184546.700,227104.600,207837.300,713650.900,0.000
202270.200,205709.300,210658.000,347246.900,184418.300,227078.900,207634.900,713641.300,0.000
202273.600,205714.800,210672.000,346952.600,184423.600,227082.600,207656.900,713633.000,0.000
202268.400,205713.000,210680.500,346992.400,184434.800,227076.100,207676.100,713634.800,0.000
202284.900,205732.900,210695.500,346582.800,184443.800,227096.900,207691.100,713632.300,0.000
202314.600,205770.100,210824.700,347208.300,184543.500,227113.000,207845.300,713647.700,0.000
202278.900,205727.100,210667.700,346923.500,184427.500,227097.800,207654.600,713635.700,0.000
202288.100,205739.100,210690.100,346684.700,184439.000,227103.500,207680.000,713632.500,0.000
202290.500,205743.900,210709.100,346781.000,184459.900,227105.000,207710.700,713635.600,0.000
202297.900,205748.500,210713.000,346402.100,184456.300,227108.800,207710.800,713628.900,0.000
202321.500,205778.100,210835.900,347054.800,184551.900,227129.400,207861.300,713644.200,0.000
202288.200,205737.300,210681.200,346801.400,184442.700,227118.200,207676.100,713634.400,0.000
202303.400,205750.700,210706.900,346585.800,184455.800,227112.400,207700.900,713635.400,0.000
202309.400,205759.400,210730.200,346694.700,184478.000,227119.800,207730.900,713642.400,0.000
202316.500,205762.400,210733.200,346312.700,184475.600,227122.100,207728.500,713637.300,0.000
202351.300,205799.100,210864.200,346964.200,184576.500,227137.000,207878.800,713655.600,0.000
202315.100,205753.400,210702.800,346689.400,184459.400,227123.200,207687.100,713645.400,0.000
202318.500,205761.600,210717.800,346434.000,184464.400,227130.700,207709.300,713636.900,0.000
202321.700,205770.500,210739.300,346528.000,184486.800,227136.300,207740.100,713642.600,0.000
202330.300,205778.600,210742.900,346136.700,184485.800,227135.800,207739.000,713637.900,0.000
202358.900,205810.800,210870.700,346772.700,184585.000,227146.100,207889.000,713655.800,0.000
202330.200,205773.200,210720.300,346500.700,184476.600,227136.200,207702.100,713646.100,0.000
202341.000,205783.800,210741.000,346244.100,184484.500,227142.900,207722.600,713642.400,0.000
202340.000,205785.900,210757.100,346319.200,184501.000,227142.400,207748.800,713642.800,0.000
202343.900,205789.100,210756.600,345911.800,184494.700,227141.500,207742.700,713638.100,0.000
202364.500,205814.100,210873.500,346534.200,184583.800,227147.500,207887.000,713652.600,0.000
202322.500,205763.300,210706.800,346251.600,184461.000,227124.600,207689.100,713643.300,0.000
202333.700,205775.800,210726.400,345984.700,184472.700,227137.400,207717.500,713641.900,0.000
202346.600,205791.700,210756.700,346063.000,184506.900,227154.800,207761.300,713646.400,0.000
202348.800,205795.000,210758.500,345638.300,184502.300,227158.600,207756.600,713637.800,0.000
202362.800,205812.700,210872.900,346231.900,184586.600,227155.300,207891.100,713648.900,0.000
202320.300,205762.700,210705.800,345924.300,184462.300,227130.500,207688.800,713638.300,0.000
202333.200,205776.100,210726.900,345638.300,184473.300,227141.200,207708.400,713634.600,0.000
202335.900,205782.200,210748.200,345704.400,184496.100,227144.300,207741.300,713635.000,0.000
202337.800,205783.800,210746.000,345284.500,184488.600,227143.000,207736.900,713631.300,0.000
202354.900,205805.900,210861.900,345897.200,184577.900,227148.100,207882.200,713646.200,0.000
202316.600,205756.800,210697.000,345609.800,184458.800,227128.300,207686.500,713635.300,0.000
202330.800,205770.700,210718.000,345330.100,184470.800,227139.900,207710.100,713631.900,0.000
202328.300,205772.900,210735.800,345407.200,184489.900,227140.000,207740.300,713635.100,0.000
202322.700,205767.800,210727.100,344987.700,184476.700,227137.600,207730.000,713628.100,0.000
202351.000,205802.100,210854.300,345625.600,184577.000,227154.600,207886.500,713644.600,0.000
202314.300,205759.100,210694.300,345351.300,184459.900,227137.800,207694.000,713636.900,0.000
202315.600,205761.500,210702.600,345054.400,184455.500,227131.300,207698.600,713630.200,0.000
202314.000,205766.800,210719.500,345134.100,184473.000,227139.900,207726.100,713631.400,0.000
202311.700,205761.500,210710.700,344719.200,184458.400,227118.600,207712.900,713623.900,0.000
202348.200,205802.600,210847.100,345360.400,184565.200,227140.000,207875.300,713642.500,0.000
202312.700,205755.300,210685.000,345082.100,184445.900,227124.400,207680.500,713632.100,0.000
202323.300,205764.200,210701.000,344793.800,184450.000,227126.500,207694.300,713628.300,0.000
202315.700,205760.900,210716.100,344874.100,184465.900,227121.300,207720.500,713630.500,0.000
202324.500,205768.900,210720.800,344470.700,184467.300,227129.300,207722.000,713623.200,0.000
202349.400,205793.400,210845.600,345106.100,184562.200,227136.900,207870.900,713639.900,0.000
202303.800,205740.100,210677.600,344821.200,184438.100,227113.700,207669.400,713626.900,0.000
202311.300,205744.300,210692.800,344526.200,184441.600,227117.800,207685.400,713620.700,0.000
202311.500,205750.000,210715.200,344620.800,184461.600,227115.900,207716.900,713624.800,0.000
202319.500,205763.800,210719.700,344223.100,184464.100,227129.800,207722.600,713621.900,0.000
202344.900,205799.300,210846.300,344864.700,184565.700,227144.800,207880.400,713638.100,0.000
202305.300,205758.400,210684.400,344597.700,184449.500,227131.500,207688.700,713628.600,0.000
202316.200,205771.900,210700.600,344297.900,184456.500,227139.100,207705.500,713624.700,0.000
202316.300,205775.300,210720.200,344389.800,184475.500,227139.200,207736.500,713626.700,0.000
202320.000,205771.600,210714.300,343982.600,184465.400,227135.200,207727.300,713620.700,0.000
202354.100,205807.400,210849.800,344632.700,184571.100,227151.000,207888.700,713639.900,0.000
202309.600,205751.900,210682.000,344364.000,184444.800,227125.700,207687.600,713629.000,0.000
202313.100,205755.300,210689.400,344062.400,184443.700,227126.200,207696.700,713621.300,0.000
202312.500,205760.600,210711.100,344161.300,184466.600,227126.500,207731.600,713622.900,0.000
202317.500,205767.000,210711.000,343756.800,184461.700,227133.000,207725.500,713615.900,0.000
202350.600,205803.600,210846.200,344416.000,184565.400,227151.200,207884.900,713634.900,0.000
202320.700,205764.700,210690.700,344174.800,184455.000,227140.100,207696.000,713630.700,0.000
202334.800,205779.900,210705.300,343883.100,184458.000,227144.900,207709.000,713629.000,0.000
202330.700,205777.900,210722.500,343987.900,184471.900,227134.900,207733.500,713630.300,0.000
202332.700,205779.600,210721.700,343592.500,184465.000,227137.400,207725.800,713623.400,0.000
202353.000,205804.600,210847.200,344239.500,184560.500,227143.300,207877.300,713634.900,0.000
202306.500,205748.500,210677.500,343992.800,184436.100,227119.600,207677.100,713624.800,0.000
202309.300,205754.200,210684.400,343695.300,184434.700,227125.300,207688.300,713620.400,0.000
202317.200,205771.200,210715.500,343815.800,184468.300,227148.600,207737.700,713623.900,0.000
202335.300,205788.400,210729.100,343443.800,184479.100,227164.200,207750.400,713621.100,0.000
202364.000,205820.100,210860.700,344098.800,184579.200,227167.300,207907.400,713636.600,0.000
202334.600,205780.300,210709.400,343871.900,184469.100,227155.700,207718.800,713630.500,0.000
202341.200,205784.800,210717.200,343568.200,184466.600,227156.500,207726.900,713627.500,0.000
202332.900,205783.800,210734.000,343684.200,184483.600,227154.800,207761.700,713630.000,0.000
202331.800,205786.900,210727.200,343298.400,184477.500,227157.700,207756.400,713623.200,0.000
202356.500,205820.200,210855.900,343952.300,184579.200,227175.200,207917.700,713639.200,0.000
202323.400,205781.800,210704.600,343730.400,184473.000,227168.800,207736.800,713631.700,0.000
202336.800,205798.600,210721.500,343441.100,184480.200,227179.200,207749.700,713629.000,0.000
202351.100,205818.200,210758.100,343579.600,184514.200,227190.200,207792.600,713637.100,0.000
202355.400,205816.800,210754.300,343194.800,184503.600,227189.600,207781.600,713630.900,0.000
202377.700,205842.700,210878.600,343847.900,184598.000,227193.500,207930.300,713645.400,0.000
202335.000,205792.300,210717.600,343623.300,184477.500,227169.100,207733.500,713634.800,0.000
202340.400,205799.000,210728.000,343328.000,184477.300,227173.900,207744.800,713629.300,0.000
202349.700,205813.400,210762.700,343468.900,184509.500,227181.200,207791.400,713636.200,0.000
202360.500,205824.900,210765.400,343096.500,184510.100,227188.400,207784.200,713634.600,0.000
202388.800,205859.000,210898.100,343759.700,184613.300,227201.800,207938.600,713650.000,0.000
202348.200,205810.100,210738.400,343548.100,184495.900,227180.500,207742.400,713639.900,0.000
202358.100,205821.800,210748.600,343262.800,184499.400,227191.100,207755.800,713636.100,0.000
202369.600,205836.900,210781.300,343411.800,184533.700,227201.500,207807.900,713642.100,0.000
202365.200,205834.300,210769.700,343026.500,184520.700,227200.000,207797.600,713635.300,0.000
202390.500,205860.000,210898.400,343681.800,184617.700,227210.000,207956.300,713650.800,0.000
202359.700,205812.900,210744.500,343474.300,184503.300,227192.400,207766.100,713643.700,0.000
202363.000,205812.400,210745.400,343176.500,184495.900,227189.300,207766.900,713637.300,0.000
202368.100,205822.500,210773.200,343321.800,184523.500,227192.000,207811.000,713642.300,0.000
202366.700,205828.500,210765.300,342944.300,184516.200,227199.000,207806.500,713636.500,0.000
202379.400,205847.600,210880.800,343591.400,184602.500,227196.900,207948.000,713651.000,0.000
202330.100,205791.100,210710.500,343382.000,184475.400,227169.600,207746.400,713641.300,0.000
202340.700,205799.300,210720.300,343090.800,184475.700,227178.900,207757.200,713637.600,0.000
202341.100,205804.200,210744.100,343219.600,184496.800,227179.600,207791.600,713640.000,0.000
202345.400,205805.800,210737.900,342842.300,184486.200,227181.000,207778.800,713636.400,0.000
202371.500,205830.100,210863.200,343484.900,184576.700,227179.600,207920.800,713651.700,0.000
202333.200,205777.900,210703.000,343267.500,184453.500,227150.100,207717.500,713640.600,0.000
202354.600,205799.400,210725.500,342975.100,184464.400,227172.500,207733.500,713637.400,0.000
202366.500,205812.500,210761.100,343110.100,184496.000,227173.200,207774.900,713642.500,0.000
202358.200,205798.400,210742.500,342713.300,184476.000,227153.100,207757.500,713632.300,0.000
202375.200,205822.600,210864.200,343352.800,184572.900,227167.500,207917.400,713649.100,0.000
202340.600,205786.600,210714.500,343149.300,184468.200,227160.900,207739.500,713641.300,0.000
202354.200,205805.100,210732.000,342851.600,184476.800,227177.500,207755.100,713638.500,0.000
202357.100,205810.200,210759.000,342979.700,184501.700,227178.800,207793.500,713641.300,0.000
202369.000,205819.700,210757.200,342596.900,184497.000,227185.700,207785.600,713637.500,0.000
202395.000,205848.500,210884.800,343230.600,184594.000,227193.900,207939.400,713653.100,0.000
202367.400,205811.400,210738.300,343032.800,184491.700,227185.300,207759.400,713644.400,0.000
202372.100,205816.800,210743.400,342723.300,184489.500,227188.100,207759.300,713638.100,0.000
202377.400,205829.600,210775.800,342860.200,184522.600,227197.500,207808.000,713644.900,0.000
202375.900,205830.600,210767.000,342470.100,184512.900,227200.800,207797.700,713637.900,0.000
202398.500,205860.900,210894.800,343098.900,184607.600,227207.900,207948.100,713653.500,0.000
202359.900,205814.700,210734.400,342891.300,184487.800,227189.000,207755.300,713644.600,0.000
202368.100,205821.800,210736.700,342584.600,184481.200,227193.100,207758.100,713640.800,0.000
202380.300,205833.900,210769.700,342712.700,184511.000,227196.200,207803.700,713646.000,0.000
202388.700,205838.200,210766.400,342312.800,184503.100,227198.300,207791.000,713640.200,0.000
202423.600,205871.900,210903.300,342947.500,184610.700,227214.000,207953.600,713658.000,0.000
202390.200,205828.700,210751.800,342746.900,184505.500,227204.400,207775.300,713648.100,0.000
202397.200,205835.300,210759.000,342439.200,184508.700,227212.600,207783.700,713643.300,0.000
202397.200,205842.600,210787.800,342569.500,184536.800,227212.200,207824.400,713648.800,0.000
202394.100,205843.900,210777.300,342167.300,184525.100,227212.700,207808.900,713642.100,0.000
202413.700,205870.200,210901.500,342789.300,184620.100,227220.200,207963.400,713657.400,0.000
202363.400,205813.200,210732.100,342575.000,184494.700,227196.300,207769.800,713645.300,0.000
202375.100,205820.800,210738.300,342261.200,184491.700,227199.600,207773.300,713640.800,0.000
202383.500,205830.700,210771.000,342389.100,184520.400,227204.500,207818.500,713645.900,0.000
202390.200,205834.800,210763.600,341986.900,184510.400,227209.300,207806.900,713640.600,0.000
202416.000,205859.900,210890.700,342608.600,184601.800,227208.400,207952.200,713657.000,0.000
202374.500,205810.500,210729.900,342400.500,184483.900,227188.400,207757.200,713646.100,0.000
202381.300,205819.300,210734.800,342081.900,184484.100,227203.300,207762.300,713641.100,0.000
202376.600,205820.000,210758.500,342208.600,184508.300,227183.900,207802.200,713645.200,0.000
202377.000,205826.400,210751.100,341805.000,184501.300,227193.300,207792.900,713639.000,0.000
202403.000,205861.200,210885.200,342431.800,184603.300,227209.400,207953.000,713656.300,0.000
202360.300,205810.200,210724.500,342229.600,184484.200,227186.000,207754.900,713647.400,0.000
202369.900,205818.500,210728.800,341913.800,184480.500,227194.000,207757.600,713642.900,0.000
202375.800,205827.600,210759.400,342048.000,184507.200,227196.600,207800.400,713645.800,0.000
202378.000,205823.600,210746.500,341635.500,184488.500,227191.100,207777.200,713638.200,0.000
202402.900,205852.800,210875.100,342255.400,184583.800,227198.900,207930.500,713655.200,0.000
202373.800,205815.100,210727.200,342065.700,184476.700,227184.800,207747.400,713649.100,0.000
202383.500,205821.000,210730.700,341754.200,184473.200,227189.800,207750.100,713643.700,0.000
202394.200,205838.200,210769.800,341899.400,184512.400,227204.200,207807.100,713649.900,0.000
202388.700,205832.100,210753.500,341477.300,184495.900,227197.000,207786.700,713641.900,0.000
202409.900,205859.900,210882.400,342096.000,184595.600,227206.000,207947.500,713655.600,0.000
202378.900,205820.600,210734.000,341917.600,184489.000,227192.500,207767.800,713650.000,0.000
202386.800,205823.400,210735.900,341599.000,184480.600,227193.300,207762.300,713643.700,0.000
202387.100,205829.200,210763.000,341729.500,184505.000,227194.700,207803.200,713646.000,0.000
202382.900,205824.100,210745.300,341310.900,184486.800,227189.200,207780.800,713637.900,0.000
202413.500,205859.800,210877.500,341930.200,184591.700,227204.200,207943.300,713654.100,0.000
202372.900,205812.500,210719.200,341736.400,184478.900,227187.300,207757.600,713643.700,0.000
202371.600,205811.200,210716.500,341408.900,184468.300,227188.200,207752.200,713635.900,0.000
202373.500,205819.300,210749.500,341555.900,184497.800,227187.700,207796.700,713642.100,0.000
202377.400,205828.100,210745.600,341150.500,184493.400,227197.000,207790.600,713638.100,0.000
202401.100,205857.300,210876.500,341771.500,184590.500,227203.200,207947.400,713653.100,0.000
202360.500,205808.100,210717.000,341584.000,184473.900,227178.000,207754.300,713643.800,0.000
202365.900,205813.400,210716.300,341254.200,184466.400,227183.400,207750.400,713639.000,0.000
202370.800,205823.900,210750.900,341404.100,184497.400,227190.300,207799.100,713643.700,0.000
202371.500,205818.600,210737.100,340991.100,184481.200,227190.000,207781.500,713635.400,0.000
202398.900,205850.700,210870.300,341612.100,184582.300,227201.800,207943.000,713651.400,0.000
202363.100,205807.700,210716.700,341441.500,184473.200,227187.600,207761.200,713644.000,0.000
202365.500,205810.700,210713.800,341115.600,184464.300,227190.400,207755.100,713637.900,0.000
202371.200,205822.400,210748.900,341275.300,184495.700,227193.300,207803.100,713644.500,0.000
202365.400,205816.800,210729.700,340856.300,184474.200,227184.300,207776.700,713636.600,0.000
202389.600,205845.500,210861.400,341472.400,184571.000,227187.300,207933.700,713652.900,0.000
202351.500,205801.300,210709.500,341302.700,184458.900,227178.900,207750.000,713644.800,0.000
202349.700,205796.600,210699.500,340962.200,184443.400,227170.900,207735.500,713635.200,0.000
202351.300,205798.900,210727.900,341109.400,184465.500,227150.800,207772.700,713637.400,0.000
202357.400,205802.300,210719.200,340712.200,184456.500,227160.300,207759.300,713635.700,0.000
202394.000,205841.700,210861.200,341339.600,184567.000,227182.000,207928.800,713653.900,0.000
202368.800,205805.000,210718.200,341185.600,184465.700,227173.200,207753.300,713648.800,0.000
202370.700,205805.700,210712.200,340841.800,184453.000,227174.600,207742.600,713638.800,0.000
202368.100,205809.300,210742.800,340993.300,184480.500,227175.400,207789.000,713641.700,0.000
202367.000,205810.800,210729.000,340587.200,184471.000,227183.500,207778.000,713636.900,0.000
202394.400,205844.400,210864.800,341203.900,184579.000,227196.400,207945.900,713651.600,0.000
202355.800,205799.900,210713.700,341046.400,184469.700,227181.100,207764.700,713641.600,0.000
202378.400,205821.500,210725.100,340719.600,184474.000,227203.300,207770.300,713639.600,0.000
202388.100,205834.000,210762.700,340877.200,184506.900,227207.500,207820.900,713645.400,0.000
202389.500,205834.200,210749.100,340470.400,184490.700,227208.100,207797.700,713637.900,0.000
202420.200,205868.000,210883.300,341089.500,184590.700,227213.000,207953.000,713654.900,0.000
202392.600,205830.400,210740.800,340946.700,184489.400,227199.300,207775.900,713648.300,0.000
202401.800,205838.900,210740.700,340615.500,184483.300,227208.100,207772.600,713643.800,0.000
202404.300,205846.100,210774.500,340775.700,184513.000,227208.100,207820.600,713648.100,0.000
202400.700,205841.000,210756.400,340365.800,184493.500,227203.200,207798.000,713641.500,0.000
202427.700,205874.100,210890.600,340981.000,184595.600,227214.100,207958.800,713656.300,0.000
202388.200,205825.400,210738.000,340842.500,184483.600,227192.600,207772.800,713649.100,0.000
202389.600,205821.600,210727.200,340496.000,184466.200,227186.600,207753.500,713641.100,0.000
202403.900,205839.900,210769.900,340660.800,184506.300,227201.100,207812.500,713645.900,0.000
202419.500,205854.900,210769.000,340270.700,184504.600,227218.900,207807.700,713642.300,0.000
202451.900,205891.200,210906.700,340888.300,184608.500,227232.000,207972.700,713660.900,0.000
202412.100,205841.400,210752.000,340746.600,184495.200,227209.300,207790.000,713652.100,0.000
202413.200,205841.300,210741.800,340399.000,184482.500,227211.800,207779.600,713643.500,0.000
202415.300,205850.400,210776.300,340556.800,184516.300,227214.300,207833.100,713645.000,0.000
202403.800,205841.100,210750.400,340148.400,184493.200,227211.100,207807.700,713638.100,0.000
202432.200,205876.500,210885.300,340763.300,184595.300,227226.900,207970.800,713656.300,0.000
202403.800,205837.600,210741.000,340632.000,184492.300,227210.000,207789.600,713651.100,0.000
202413.300,205844.000,210736.700,340283.200,184483.500,227215.200,207777.600,713644.200,0.000
202421.300,205856.500,210776.200,340445.300,184519.300,227221.900,207830.200,713647.500,0.000
202431.700,205863.100,210769.500,340054.400,184510.300,227227.200,207816.600,713642.300,0.000
202469.600,205903.900,210910.400,340666.000,184618.400,227254.800,207987.000,713659.300,0.000
202441.900,205862.600,210766.500,340535.500,184512.300,227232.300,207807.400,713650.200,0.000
202461.000,205872.000,210769.200,340194.100,184503.500,227228.600,207795.500,713645.900,0.000
202473.600,205883.500,210808.300,340350.100,184536.200,227234.900,207846.700,713646.900,0.000
202482.700,205884.500,210794.400,339947.500,184521.300,227237.400,207827.700,713639.100,0.000
202521.500,205925.600,210936.800,340562.600,184628.600,227252.300,207992.200,713658.700,0.000
202492.000,205888.500,210796.200,340442.400,184528.200,227238.200,207814.500,713653.700,0.000
202493.600,205889.800,210786.200,340080.200,184511.500,227240.600,207798.200,713645.000,0.000
202493.000,205891.200,210818.400,340228.700,184539.700,227238.800,207846.100,713651.400,0.000
202492.200,205887.700,210801.900,339829.900,184523.300,227239.400,207826.500,713646.400,0.000
202516.500,205917.400,210929.700,340428.000,184620.100,227246.500,207982.500,713659.400,0.000
202484.700,205882.100,210786.300,340293.900,184515.500,227229.500,207802.500,713649.800,0.000
202488.700,205884.100,210780.800,339937.800,184501.900,227230.700,207787.500,713640.400,0.000
202486.800,205886.200,210811.900,340093.500,184531.900,227232.500,207839.600,713641.900,0.000
202481.000,205879.100,210789.500,339692.800,184514.300,227227.800,207818.000,713637.300,0.000
202504.200,205909.900,210920.100,340296.500,184616.600,227239.600,207981.900,713654.500,0.000
202458.400,205861.700,210764.400,340166.800,184506.400,227223.300,207804.700,713647.900,0.000
202458.200,205861.100,210751.000,339807.900,184489.800,227229.100,207789.800,713642.400,0.000
202467.100,205877.400,210795.400,339974.500,184527.300,227239.000,207847.900,713647.900,0.000
202459.500,205871.700,210777.600,339568.400,184506.200,227231.800,207823.800,713638.600,0.000
202481.300,205901.200,210911.600,340166.200,184607.800,227240.200,207984.700,713652.600,0.000
202438.400,205856.100,210760.700,340033.700,184498.700,227220.000,207802.400,713643.700,0.000
202444.000,205861.500,210752.600,339682.200,184486.300,227226.300,207789.200,713638.800,0.000
202445.200,205868.300,210787.300,339844.700,184520.200,227235.100,207842.800,713642.500,0.000
202450.800,205876.200,210776.600,339451.800,184514.300,227248.700,207830.800,713638.400,0.000
202475.300,205900.100,210907.000,340049.700,184610.800,227236.700,207986.000,713655.800,0.000
202436.100,205855.400,210759.100,339922.300,184502.600,227220.500,207804.400,713647.200,0.000
202444.200,205864.800,210754.200,339558.200,184493.500,227232.100,207794.100,713640.200,0.000
202450.300,205877.500,210796.400,339719.800,184531.000,227237.100,207851.800,713644.100,0.000
202436.200,205865.000,210771.300,339309.500,184503.800,227224.100,207817.000,713636.200,0.000
202461.800,205899.500,210907.600,339907.800,184606.300,227236.600,207978.000,713653.900,0.000
202428.000,205858.700,210763.300,339782.900,184502.000,227220.900,207800.900,713649.400,0.000
202433.300,205863.100,210755.900,339422.000,184489.200,227227.300,207786.800,713646.000,0.000
202437.300,205875.800,210794.500,339586.200,184526.700,227238.300,207845.600,713651.600,0.000
202435.200,205874.200,210775.600,339180.000,184511.600,227242.500,207825.900,713642.800,0.000
202467.600,205912.100,210913.100,339784.000,184617.500,227259.400,207991.000,713662.000,0.000
202415.300,205850.000,210750.300,339643.800,184495.000,227224.500,207797.400,713651.600,0.000
202409.300,205843.600,210730.400,339255.200,184468.400,227214.300,207768.800,713639.900,0.000
202424.700,205867.100,210782.700,339419.100,184514.200,227227.900,207834.800,713642.800,0.000
202425.500,205867.000,210769.000,339014.800,184501.200,227229.100,207815.600,713637.300,0.000
202449.900,205893.500,210902.700,339609.200,184603.900,227238.800,207979.800,713651.700,0.000
202418.500,205855.000,210764.000,339496.600,184505.100,227228.600,207810.500,713646.400,0.000
202427.900,205864.800,210755.900,339131.900,184494.500,227239.200,207796.100,713643.100,0.000
202422.100,205866.600,210783.800,339287.200,184518.800,227232.000,207842.800,713646.200,0.000
202422.900,205866.200,210767.800,338882.900,184503.300,227234.200,207826.600,713640.800,0.000
202460.500,205909.000,210912.200,339491.600,184616.500,227257.600,208001.900,713658.600,0.000
202428.400,205869.000,210770.200,339375.800,184515.000,227247.600,207828.800,713652.400,0.000
202429.100,205866.300,210755.800,338996.800,184494.800,227249.400,207804.500,713646.600,0.000
202436.500,205875.100,210798.600,339166.100,184530.600,227249.600,207859.500,713651.200,0.000
202434.800,205874.500,210783.000,338759.200,184512.300,227245.200,207835.800,713643.300,0.000
202454.600,205900.800,210910.100,339352.300,184606.000,227249.000,207990.600,713656.600,0.000
202421.100,205864.300,210766.200,339245.100,184505.200,227240.700,207819.600,713651.100,0.000
202431.000,205874.600,210758.900,338872.900,184495.200,227260.500,207807.400,713647.100,0.000
202443.400,205884.400,210802.300,339048.300,184532.800,227248.700,207868.800,713652.600,0.000
202440.000,205879.300,210778.800,338642.400,184512.800,227246.000,207840.500,713646.300,0.000
202463.500,205910.600,210910.400,339240.700,184613.000,227256.900,208001.100,713660.100,0.000
202431.600,205871.300,210770.300,339134.100,184510.500,227243.200,207826.200,713654.400,0.000
202439.400,205880.000,210762.100,338755.800,184495.100,227251.600,207805.600,713649.800,0.000
202438.500,205884.500,210797.300,338925.300,184525.700,227250.300,207857.500,713650.400,0.000
202429.000,205873.800,210769.400,338515.600,184502.800,227244.700,207826.900,713640.000,0.000
202458.600,205909.700,210907.400,339125.300,184606.900,227257.400,207993.700,713660.400,0.000
202425.900,205866.500,210763.500,339023.100,184501.400,227241.800,207817.000,713654.300,0.000
202434.800,205871.700,210752.300,338642.600,184486.500,227247.400,207796.000,713649.100,0.000
202442.000,205882.900,210796.500,338821.800,184524.700,227247.200,207853.400,713653.700,0.000
202435.400,205875.100,210773.800,338418.200,184503.200,227243.600,207825.100,713644.600,0.000
202456.800,205905.700,210908.500,339018.000,184602.900,227252.300,207986.600,713657.100,0.000
202416.700,205861.300,210761.200,338919.200,184499.500,227233.900,207811.800,713649.300,0.000
202422.000,205861.600,210745.900,338537.100,184482.500,227237.100,207790.900,713643.600,0.000
202419.700,205864.100,210779.300,338710.700,184509.000,227230.400,207839.300,713643.900,0.000
202422.800,205866.300,210763.400,338317.200,184493.800,227233.300,207819.300,713636.600,0.000
202458.900,205903.700,210908.200,338939.500,184604.300,227253.700,207995.100,713657.200,0.000
202412.400,205850.900,210752.200,338846.400,184491.400,227231.100,207814.600,713649.800,0.000
202414.400,205851.800,210734.000,338458.000,184470.800,227234.500,207792.400,713641.400,0.000
202415.900,205861.200,210774.300,338644.500,184506.200,227236.300,207850.100,713645.100,0.000
202401.700,205847.400,210741.600,338239.900,184475.900,227224.500,207813.900,713637.500,0.000
202426.300,205880.900,210877.200,338837.100,184578.500,227236.200,207980.400,713651.400,0.000
202388.900,205837.600,210731.600,338747.700,184476.400,227220.500,207809.500,713645.300,0.000
202397.800,205842.000,210717.900,338355.500,184459.200,227226.100,207786.100,713638.500,0.000
202408.800,205854.800,210767.200,338546.400,184498.200,227226.500,207843.600,713645.900,0.000
202401.400,205843.900,210741.300,338141.200,184472.600,227219.300,207808.500,713636.300,0.000
202429.400,205877.500,210879.800,338750.400,184577.000,227231.300,207973.800,713651.300,0.000
202386.200,205827.300,210727.700,338672.900,184465.600,227202.800,207789.700,713646.000,0.000
202383.200,205828.600,210704.800,338277.300,184443.800,227213.700,207759.400,713638.300,0.000
202387.800,205836.000,210746.700,338469.300,184483.500,227209.400,207823.700,713643.100,0.000
202375.900,205825.100,210716.300,338072.000,184458.900,227201.100,207796.000,713636.400,0.000
202396.800,205853.200,210847.100,338670.300,184558.400,227210.000,207956.500,713650.400,0.000
202370.400,205817.000,210713.400,338607.100,184464.300,227195.900,207788.800,713648.100,0.000
202386.100,205829.100,210705.400,338214.200,184451.300,227210.000,207767.300,713641.500,0.000
202403.100,205849.700,210756.900,338410.000,184496.600,227222.600,207834.200,713647.300,0.000
202397.600,205842.000,210728.800,338012.800,184473.100,227218.700,207804.100,713638.300,0.000
202429.400,205879.600,210870.700,338622.200,184581.400,227231.300,207973.700,713655.600,0.000
202401.100,205844.000,210737.400,338553.900,184488.400,227220.700,207808.900,713651.600,0.000
202395.900,205838.400,210711.100,338133.500,184459.500,227218.900,207771.700,713640.000,0.000
202407.900,205854.700,210762.800,338324.600,184502.000,227223.900,207835.400,713647.300,0.000
202407.000,205851.000,210741.600,337935.900,184482.100,227219.500,207806.100,713639.600,0.000
202438.700,205889.300,210883.200,338539.000,184590.900,227235.100,207978.000,713655.400,0.000
202412.300,205857.600,210753.100,338479.000,184500.500,227229.700,207818.000,713651.800,0.000
202410.300,205856.800,210728.900,338060.600,184473.300,227231.800,207784.900,713642.500,0.000
202419.500,205867.000,210773.200,338252.100,184511.000,227233.200,207845.100,713649.500,0.000
202426.500,205871.300,210757.600,337872.500,184501.400,227239.800,207828.700,713647.300,0.000
202466.000,205911.200,210902.900,338475.100,184615.400,227261.000,208004.300,713663.200,0.000
202426.800,205859.000,210756.500,338407.800,184508.600,227233.000,207824.100,713653.700,0.000
202431.800,205861.500,210736.400,337995.000,184483.800,227232.200,207789.600,713642.800,0.000
202444.000,205881.800,210788.700,338189.800,184529.600,227243.500,207859.300,713650.300,0.000
202438.700,205881.600,210767.800,337806.600,184512.100,227249.700,207836.200,713644.800,0.000
202470.300,205926.800,210915.000,338410.400,184628.600,227275.100,208016.200,713659.500,0.000
202419.100,205870.600,210762.100,338347.600,184514.500,227243.300,207833.200,713652.700,0.000
202412.400,205860.600,210729.300,337930.600,184480.200,227237.000,207793.100,713642.900,0.000
202425.200,205875.100,210776.600,338124.900,184521.200,227242.400,207856.700,713649.100,0.000
202434.000,205877.500,210761.500,337750.000,184506.400,227248.600,207834.000,713646.400,0.000
202468.100,205913.600,210902.200,338351.200,184611.700,227268.200,208002.800,713661.400,0.000
202441.200,205870.700,210767.500,338299.800,184512.000,227232.700,207831.600,713657.200,0.000
202431.100,205860.300,210734.000,337869.500,184476.000,227226.000,207781.200,713643.900,0.000
202425.200,205866.700,210772.600,338045.900,184506.900,227220.600,207831.700,713645.100,0.000
202422.200,205865.800,210753.800,337665.100,184491.700,227222.900,207807.600,713639.600,0.000
202458.400,205909.400,210902.100,338270.900,184605.700,227246.100,207985.800,713656.200,0.000
202415.900,205859.800,210755.000,338210.600,184495.800,227222.700,207807.800,713649.300,0.000
202416.800,205857.400,210724.900,337789.100,184464.000,227224.300,207767.200,713640.100,0.000
202428.900,205873.100,210773.700,337982.700,184507.200,227233.800,207837.800,713646.400,0.000
202422.500,205863.300,210744.600,337596.100,184484.500,227231.200,207811.100,713641.300,0.000
202462.600,205907.800,210895.700,338205.500,184600.500,227254.300,207990.100,713658.900,0.000
202431.400,205868.300,210761.800,338162.300,184503.700,227235.100,207822.800,713653.800,0.000
202418.200,205854.800,210724.900,337729.100,184466.000,227228.800,207779.700,713640.600,0.000
202419.200,205863.500,210768.400,337915.300,184502.500,227229.100,207841.200,713643.600,0.000
202421.500,205867.200,210754.300,337547.100,184491.800,227235.400,207822.600,713641.400,0.000
202455.200,205906.200,210899.100,338154.100,184605.200,227255.500,208000.000,713658.300,0.000
202406.300,205846.100,210743.500,338099.000,184489.200,227219.300,207814.600,713648.800,0.000
202405.300,205840.400,210712.200,337677.800,184456.300,227216.500,207772.200,713638.800,0.000
202417.200,205859.000,210762.600,337876.800,184498.900,227221.600,207837.700,713644.600,0.000
202416.600,205854.900,210737.400,337497.400,184474.400,227215.200,207805.500,713637.900,0.000
202445.400,205880.900,210871.800,338095.900,184573.300,227219.700,207967.700,713653.100,0.000
202403.500,205829.500,210725.600,338055.500,184466.900,227194.900,207791.400,713648.900,0.000
202408.800,205834.300,210705.300,337641.300,184448.900,227208.500,207764.500,713642.000,0.000
202414.300,205849.100,210755.800,337846.900,184492.300,227215.900,207831.800,713647.800,0.000
202395.800,205833.800,210719.200,337454.100,184457.200,227200.200,207787.300,713640.200,0.000
202429.200,205874.200,210863.700,338051.700,184565.100,227215.600,207957.600,713656.000,0.000
202398.100,205836.900,210730.000,338013.300,184470.800,227207.400,207798.700,713652.300,0.000
202403.400,205837.200,210706.900,337589.300,184445.700,227214.800,207765.600,713645.900,0.000
202415.300,205852.100,210758.900,337789.100,184490.400,227225.500,207836.200,713653.500,0.000
202410.900,205848.000,210732.100,337395.900,184469.700,227234.700,207809.300,713643.300,0.000
202441.300,205878.300,210871.600,337987.000,184575.300,227232.000,207981.000,713656.200,0.000
202404.900,205833.300,210734.100,337947.600,184476.800,227213.100,207815.300,713652.600,0.000
202404.200,205828.100,210703.600,337511.900,184444.400,227214.700,207772.700,713643.300,0.000
202412.000,205844.700,210752.700,337703.500,184484.800,227218.300,207839.700,713647.600,0.000
202411.100,205845.200,210733.700,337323.000,184470.300,227223.200,207817.000,713643.300,0.000
202435.800,205879.200,210870.200,337906.800,184573.900,227235.400,207983.600,713659.100,0.000
202385.300,205824.900,210719.100,337858.100,184460.300,227201.800,207801.300,713651.100,0.000
202389.200,205825.700,210692.200,337424.300,184430.300,227201.100,207758.700,713644.000,0.000
202405.500,205845.100,210748.000,337627.300,184477.500,227214.700,207835.800,713650.400,0.000
202407.000,205843.300,210727.600,337241.600,184458.000,227218.600,207810.300,713641.700,0.000
202442.800,205882.600,210873.600,337829.800,184566.200,227235.700,207979.100,713656.400,0.000
202426.400,205854.600,210752.300,337819.000,184480.700,227230.900,207824.700,713657.200,0.000
202429.100,205853.700,210721.100,337385.100,184451.100,227234.800,207782.400,713648.300,0.000
202423.800,205856.000,210759.400,337576.100,184483.800,227228.700,207843.900,713652.000,0.000
202420.600,205858.300,210739.800,337192.200,184468.000,227234.800,207821.000,713646.800,0.000
202447.500,205891.400,210879.600,337783.000,184573.400,227247.400,207988.900,713663.000,0.000
202410.800,205849.800,210742.600,337756.800,184475.800,227228.800,207824.500,713658.000,0.000
202412.300,205849.700,210713.500,337314.900,184446.700,227229.700,207782.800,713650.300,0.000
202428.100,205872.000,210772.500,337524.900,184498.500,227242.000,207860.100,713656.600,0.000
202422.300,205861.100,210742.600,337133.600,184472.400,227235.500,207826.300,713650.000,0.000
202451.000,205893.600,210878.900,337717.100,184573.400,227243.400,207990.400,713665.800,0.000
202415.400,205853.700,210744.000,337689.200,184476.700,227228.400,207828.800,713659.600,0.000
202429.600,205861.000,210726.400,337257.000,184456.300,227241.200,207795.800,713654.300,0.000
202436.300,205874.600,210776.500,337459.800,184497.000,227239.400,207858.000,713659.300,0.000
202428.700,205869.000,210748.300,337066.900,184474.000,227236.000,207825.300,713652.200,0.000
202464.100,205906.400,210894.900,337654.500,184583.800,227253.900,207999.100,713669.600,0.000
202429.100,205866.200,210761.800,337630.800,184490.100,227240.300,207834.900,713664.700,0.000
202431.700,205867.100,210732.600,337179.900,184462.400,227245.600,207795.100,713657.800,0.000
202440.300,205882.300,210783.300,337383.100,184508.000,227257.300,207869.500,713664.700,0.000
202426.000,205868.600,210746.500,336978.300,184475.500,227248.900,207827.100,713652.400,0.000
202449.100,205893.400,210881.200,337553.100,184572.500,227237.900,207990.400,713667.000,0.000
202412.800,205850.500,210743.300,337530.600,184475.600,227223.900,207826.400,713661.600,0.000
202418.200,205853.000,210715.600,337079.200,184449.300,227233.100,207788.600,713654.100,0.000
202431.800,205874.200,210773.900,337288.200,184498.500,227245.500,207867.000,713659.300,0.000
202427.700,205873.500,210748.300,336898.300,184477.900,227250.500,207838.800,713653.400,0.000
202453.600,205902.100,210884.700,337476.300,184581.700,227259.800,208005.900,713669.100,0.000
202416.000,205857.000,210748.300,337459.000,184486.200,227235.800,207839.400,713663.200,0.000
202416.200,205853.800,210715.900,336993.000,184453.800,227236.600,207791.300,713651.300,0.000
202428.000,205868.300,210773.200,337195.800,184499.900,227239.600,207864.700,713657.000,0.000
202424.000,205864.100,210746.600,336810.200,184477.800,227240.300,207833.000,713651.700,0.000
202453.500,205899.900,210887.000,337384.500,184582.900,227253.200,208002.600,713666.300,0.000
202423.000,205864.400,210757.200,337378.900,184489.100,227240.600,207845.100,713664.100,0.000
202429.600,205867.500,210729.900,336925.100,184459.100,227248.000,207802.800,713656.800,0.000
202439.100,205879.700,210781.700,337132.900,184501.000,227250.700,207874.300,713661.400,0.000
202433.000,205866.800,210746.500,336742.900,184472.600,227242.200,207837.400,713653.500,0.000
202460.100,205895.200,210883.500,337314.600,184576.200,227253.100,208007.800,713667.800,0.000
202430.500,205857.800,210755.100,337312.500,184486.400,227239.700,207851.100,713662.300,0.000
202429.400,205853.900,210717.800,336834.600,184449.000,227238.500,207797.400,713651.100,0.000
202439.600,205867.200,210775.300,337037.800,184494.100,227242.600,207867.300,713657.400,0.000
202434.500,205863.700,210748.400,336651.300,184471.600,227242.900,207835.400,713648.700,0.000
202456.500,205895.200,210884.500,337218.000,184572.300,227250.600,208000.300,713661.600,0.000
202410.700,205848.700,210744.100,337211.200,184470.800,227229.300,207830.600,713655.800,0.000
202411.200,205851.000,210709.300,336731.100,184440.100,227240.000,207785.900,713648.300,0.000
202426.000,205871.900,210770.300,336938.700,184492.300,227252.100,207866.400,713657.800,0.000
202418.800,205861.200,210736.400,336547.600,184462.500,227246.700,207826.900,713648.400,0.000
202448.600,205895.200,210875.600,337117.700,184568.100,227268.000,207996.800,713663.200,0.000
202419.900,205853.700,210748.200,337121.400,184477.100,227236.300,207838.900,713658.900,0.000
202421.500,205851.400,210711.800,336634.800,184440.900,227236.700,207784.600,713648.100,0.000
202435.600,205871.600,210772.300,336840.900,184490.900,227245.700,207862.800,713655.100,0.000
202428.700,205864.400,210741.600,336453.600,184465.000,227242.100,207828.900,713649.200,0.000
202457.500,205899.600,210881.900,337025.000,184570.100,227253.400,208000.000,713664.800,0.000
202419.700,205854.100,210746.700,337023.600,184473.100,227232.800,207838.200,713657.300,0.000
202417.600,205851.800,210708.200,336533.600,184436.200,227236.700,207786.200,713647.300,0.000
202430.200,205873.900,210770.100,336747.000,184488.500,227245.500,207864.400,713657.600,0.000
202417.000,205860.900,210733.800,336357.800,184459.000,227236.700,207825.100,713648.500,0.000
202446.800,205894.500,210875.400,336920.400,184565.000,227250.900,207996.900,713659.500,0.000
202412.800,205852.500,210742.700,336930.200,184465.600,227229.500,207834.000,713655.600,0.000
202417.100,205854.600,210707.000,336436.100,184429.300,227236.800,207782.100,713645.000,0.000
202423.300,205864.800,210757.600,336630.800,184471.000,227237.900,207852.500,713650.100,0.000
202416.100,205856.400,210724.300,336234.200,184442.000,227229.200,207811.700,713640.600,0.000
202460.600,205905.300,210880.000,336801.200,184559.000,227250.500,207989.700,713657.500,0.000
202436.000,205872.900,210760.200,336813.800,184476.600,227244.500,207841.500,713656.200,0.000
202433.000,205865.300,210719.600,336316.300,184440.400,227246.400,207788.600,713647.700,0.000
202444.800,205883.500,210779.000,336517.300,184492.200,227255.300,207868.400,713656.900,0.000
202438.500,205880.800,210748.000,336117.900,184469.300,227259.000,207840.600,713650.000,0.000
202466.100,205917.100,210890.000,336662.000,184573.800,227271.300,208011.300,713664.300,0.000
202424.500,205868.000,210753.600,336650.500,184474.200,227244.900,207845.000,713656.800,0.000
202411.800,205850.500,210698.200,336110.800,184422.800,227235.800,207775.500,713640.600,0.000
202429.900,205871.900,210761.500,336287.800,184477.400,227245.800,207857.900,713648.400,0.000
202438.000,205875.100,210742.100,335878.900,184463.300,227250.500,207830.800,713644.600,0.000
202472.800,205913.000,210888.100,336407.900,184572.100,227262.400,208001.000,713658.000,0.000
202436.500,205872.300,210758.200,336388.500,184478.100,227244.400,207842.600,713652.600,0.000
202434.300,205870.600,210717.200,335854.500,184440.600,227250.500,207786.700,713643.300,0.000
202440.400,205887.700,210772.500,336015.500,184488.300,227258.100,207862.700,713649.400,0.000
202429.800,205876.900,210737.000,335585.600,184461.500,227255.200,207828.200,713641.400,0.000
202460.700,205912.000,210877.500,336101.300,184568.000,227271.400,208001.500,713655.800,0.000
202427.900,205874.500,210749.300,336078.500,184476.500,227258.400,207847.500,713652.400,0.000
202420.400,205865.000,210699.100,335518.600,184429.300,227255.200,207781.500,713638.100,0.000
202427.000,205878.200,210752.000,335669.300,184471.100,227253.000,207850.100,713643.600,0.000
202421.300,205868.500,210720.500,335234.700,184443.300,227246.500,207810.200,713635.200,0.000
202456.600,205909.500,210868.300,335749.500,184555.700,227279.300,207988.600,713651.700,0.000
202427.900,205872.600,210747.400,335737.600,184468.200,227257.100,207837.100,713647.900,0.000
202425.800,205864.500,210702.600,335190.300,184425.200,227249.400,207774.400,713637.800,0.000
202434.800,205880.700,210758.500,335357.700,184473.800,227258.300,207855.500,713645.400,0.000
202431.100,205875.800,210729.900,334938.000,184453.200,227259.200,207827.100,713641.300,0.000
202462.000,205911.500,210871.900,335456.300,184561.300,227273.300,208000.900,713655.800,0.000
202431.300,205873.700,210747.400,335442.600,184471.300,227251.900,207841.500,713646.400,0.000
202416.800,205855.600,210691.000,334878.800,184415.000,227235.400,207760.900,713626.900,0.000
202420.800,205865.200,210741.800,335037.100,184455.000,227232.300,207829.600,713629.400,0.000
202427.200,205867.800,210721.300,334619.700,184438.900,227239.700,207799.600,713622.300,0.000
202467.300,205911.300,210872.500,335136.600,184552.200,227260.800,207978.300,713637.900,0.000
202428.000,205863.600,210744.000,335125.400,184460.200,227242.300,207825.300,713630.800,0.000
202428.800,205860.400,210701.200,334586.700,184420.900,227247.700,207766.800,713621.800,0.000
202440.800,205877.100,210757.800,334761.700,184468.300,227256.300,207846.100,713626.300,0.000
202443.400,205881.800,210732.700,334355.700,184449.400,227262.200,207816.800,713620.000,0.000
202473.400,205920.800,210875.200,334887.600,184556.800,227277.100,207989.700,713635.600,0.000
202432.700,205872.200,210743.300,334885.600,184461.200,227251.800,207829.500,713630.200,0.000
202427.800,205864.300,210694.000,334315.600,184414.100,227249.100,207760.600,713617.800,0.000
202441.800,205885.100,210758.100,334470.100,184466.900,227259.900,207842.900,713622.800,0.000
202443.400,205890.900,210737.000,334040.400,184454.300,227269.600,207816.300,713617.300,0.000
202472.400,205922.600,210875.700,334535.000,184556.400,227278.900,207980.800,713631.700,0.000
202442.200,205882.000,210750.800,334497.800,184464.200,227260.800,207823.200,713627.700,0.000
202440.600,205876.700,210702.500,333863.400,184416.800,227263.000,207753.400,713614.000,0.000
202443.400,205887.300,210750.200,333919.300,184457.000,227265.600,207820.700,713612.600,0.000
202429.300,205869.800,210701.300,333346.000,184418.500,227255.700,207765.000,713598.200,0.000
202452.300,205898.000,210827.800,333688.400,184513.500,227264.600,207924.500,713608.700,0.000
202421.100,205865.600,210705.900,333511.100,184430.000,227254.800,207775.600,713601.600,0.000
202424.900,205869.000,210666.500,332750.900,184391.700,227265.300,207711.500,713586.600,0.000
202443.600,205893.700,210734.700,332745.200,184445.300,227274.200,207792.000,713586.300,0.000
202439.800,205889.000,210704.700,332174.500,184419.000,227271.000,207751.300,713574.500,0.000
202466.900,205918.200,210844.700,332561.300,184521.100,227277.800,207917.800,713585.600,0.000
202438.700,205885.900,210730.600,332470.100,184441.200,227279.100,207778.300,713579.800,0.000
202437.800,205877.800,210682.300,331823.100,184396.500,227266.200,207716.500,713567.100,0.000
202443.900,205889.900,210736.400,331944.800,184442.800,227267.700,207794.300,713572.900,0.000
202445.200,205888.600,210709.300,331509.200,184426.000,227272.800,207766.600,713565.900,0.000
202480.400,205925.400,210854.300,332027.100,184534.500,227287.600,207944.500,713579.300,0.000
202434.100,205870.800,210722.700,332046.600,184433.500,227251.000,207783.200,713568.800,0.000
202429.100,205859.800,210673.600,331491.100,184385.600,227244.300,207711.000,713555.900,0.000
202449.200,205887.800,210749.100,331721.800,184447.400,227260.800,207806.200,713564.800,0.000
202447.500,205888.600,210723.900,331380.900,184427.300,227265.900,207779.600,713559.200,0.000
202481.300,205928.000,210870.900,331989.200,184537.900,227283.500,207957.300,713576.400,0.000
202450.600,205890.800,210756.300,332106.100,184458.800,227266.200,207817.000,713576.400,0.000
202437.200,205874.200,210697.800,331591.200,184407.200,227257.600,207746.400,713559.600,0.000
202442.900,205883.600,210750.900,331866.000,184451.900,227257.400,207826.300,713563.900,0.000
202437.000,205877.300,210717.300,331578.100,184426.500,227256.800,207794.000,713557.200,0.000
202469.300,205915.500,210862.300,332246.700,184535.600,227272.000,207970.700,713576.200,0.000
202427.200,205868.300,210736.400,332394.100,184443.100,227247.500,207817.800,713572.400,0.000
202417.700,205857.600,210682.800,331897.500,184394.400,227246.100,207746.100,713557.800,0.000
202427.800,205875.600,210746.900,332202.900,184448.900,227253.900,207832.900,713565.300,0.000
202418.800,205869.400,210713.600,331943.900,184423.500,227251.700,207794.700,713561.100,0.000
202444.900,205900.100,210850.200,332624.500,184521.600,227255.500,207955.500,713577.100,0.000
202419.500,205863.800,210735.700,332779.100,184438.400,227235.700,207807.500,713574.600,0.000
202431.400,205871.600,210697.000,332260.300,184402.500,227246.900,207744.700,713564.800,0.000
202444.900,205891.400,210762.800,332537.200,184456.700,227256.500,207830.600,713571.300,0.000
202429.800,205878.000,210723.300,332248.100,184424.300,227252.400,207788.500,713563.600,0.000
202451.000,205903.700,210855.900,332902.500,184521.500,227256.300,207956.100,713578.800,0.000
202425.000,205873.300,210742.000,333004.100,184444.500,227251.400,207820.000,713578.100,0.000
202433.100,205874.200,210696.400,332380.100,184406.000,227260.600,207752.300,713566.100,0.000
202435.600,205882.100,210748.400,332550.900,184450.100,227260.600,207828.600,713567.800,0.000
202429.900,205872.900,210712.400,332182.600,184419.700,227253.100,207782.500,713560.000,0.000
202466.400,205913.000,210858.900,332768.800,184527.200,227268.800,207951.800,713577.300,0.000
202451.100,205894.100,210756.700,332800.100,184459.800,227270.900,207819.900,713577.300,0.000
202446.000,205889.400,210700.400,332077.900,184408.100,227272.000,207740.100,713558.600,0.000
202440.600,205895.200,210752.600,332216.000,184448.900,227267.300,207816.800,713557.500,0.000
202440.900,205899.100,210729.600,331863.500,184434.400,227282.700,207794.600,713552.900,0.000
202475.600,205935.400,210875.000,332489.500,184545.300,227297.800,207972.400,713570.600,0.000
202450.000,205900.300,210761.000,332540.400,184467.000,227274.400,207832.200,713565.000,0.000
202456.700,205901.700,210712.200,331827.400,184424.200,227285.300,207757.400,713550.300,0.000
202473.600,205919.800,210778.800,332009.500,184477.800,227292.300,207844.700,713553.800,0.000
202465.400,205910.500,210747.000,331700.800,184453.800,227288.000,207812.200,713546.200,0.000
202487.000,205936.700,210882.700,332396.200,184553.800,227289.200,207982.200,713562.700,0.000
202454.800,205898.300,210766.600,332522.300,184473.500,227275.800,207843.300,713560.300,0.000
202447.900,205891.400,210710.200,331866.900,184423.100,227280.400,207769.400,713542.300,0.000
202461.000,205915.500,210782.400,332158.800,184483.100,227291.100,207865.800,713549.000,0.000
202465.200,205919.600,210766.700,332012.100,184472.200,227295.600,207845.600,713550.000,0.000
202495.300,205948.900,210911.700,332890.600,184579.000,227300.600,208021.700,713572.600,0.000
202457.200,205904.800,210793.100,333173.400,184495.200,227279.700,207880.000,713568.400,0.000
202454.300,205898.100,210736.300,332617.500,184445.400,227280.400,207801.900,713553.400,0.000
202461.600,205909.000,210797.300,332980.600,184496.000,227277.700,207883.800,713559.900,0.000
202457.100,205902.000,210766.600,332867.100,184471.900,227274.300,207849.000,713557.600,0.000
202491.500,205938.100,210909.900,333737.600,184577.200,227290.200,208021.300,713576.600,0.000
202462.600,205902.400,210790.900,333910.800,184490.900,227274.000,207870.300,713570.600,0.000
202454.800,205891.900,210723.100,333172.700,184427.200,227266.300,207771.000,713552.800,0.000
202476.100,205922.600,210804.800,333478.400,184493.100,227286.800,207871.600,713560.000,0.000
202473.600,205923.000,210785.300,333388.600,184479.600,227292.700,207852.400,713556.700,0.000
202490.500,205945.000,210920.500,334368.600,184575.800,227288.500,208017.100,713577.800,0.000
202453.700,205903.400,210800.500,334655.600,184491.000,227271.100,207871.300,713575.200,0.000
202444.700,205890.000,210732.300,333949.300,184433.000,227271.700,207780.000,713553.400,0.000
202448.600,205898.400,210789.000,334220.500,184476.800,227268.700,207855.000,713555.300,0.000
202438.900,205884.300,210748.000,333986.400,184440.100,227257.400,207801.000,713546.700,0.000
202472.000,205917.400,210885.000,334752.500,184537.400,227266.300,207958.800,713563.000,0.000
202447.400,205888.500,210767.200,334727.300,184454.200,227256.700,207807.700,713553.200,0.000
202442.300,205882.000,210699.700,333688.000,184393.900,227254.000,207708.800,713526.600,0.000
202451.500,205900.100,210771.500,333741.800,184448.000,227259.900,207796.000,713525.200,0.000
202452.000,205902.800,210754.600,333446.800,184433.700,227267.500,207773.400,713516.900,0.000
202481.100,205934.800,210896.600,334226.600,184538.400,227278.500,207945.300,713533.300,0.000
202450.800,205902.000,210779.500,334220.700,184460.000,227270.200,207807.100,713525.000,0.000
202436.000,205884.100,210701.000,333114.600,184393.000,227263.700,207706.700,713492.200,0.000
202442.300,205894.500,210761.300,333095.500,184439.300,227269.200,207787.100,713484.800,0.000
202443.100,205892.100,210735.600,332725.000,184418.200,227274.600,207755.800,713473.800,0.000
202472.300,205918.400,210874.600,333445.900,184516.300,227265.700,207920.500,713488.600,0.000
202447.900,205894.500,210764.100,333372.600,184444.000,227265.900,207785.800,713478.600,0.000
202456.900,205908.100,210711.500,332189.100,184399.800,227285.000,207704.800,713449.800,0.000
202471.500,205928.600,210784.800,332131.200,184455.500,227292.500,207796.900,713442.100,0.000
202470.400,205922.800,210761.000,331752.700,184436.800,227293.800,207769.700,713430.500,0.000
202507.100,205959.500,210907.200,332480.800,184544.000,227306.600,207940.800,713446.800,0.000
202481.000,205930.600,210792.100,332384.700,184467.400,227295.900,207802.900,713436.100,0.000
202476.500,205926.500,210722.000,331124.000,184412.000,227304.200,207714.900,713400.900,0.000
202488.100,205941.300,210790.300,331026.200,184465.500,227308.800,207803.800,713397.400,0.000
202484.700,205932.900,210763.200,330609.200,184441.000,227304.600,207770.300,713383.100,0.000
202524.200,205971.200,210912.000,331315.500,184549.800,227322.400,207943.500,713401.600,0.000
202496.100,205940.800,210799.000,331188.800,184473.300,227310.500,207804.900,713389.600,0.000
202490.900,205934.700,210730.400,329900.200,184414.900,227314.900,207713.300,713354.700,0.000
202517.500,205962.300,210811.700,329821.800,184481.200,227332.300,207810.800,713354.200,0.000
202517.400,205959.600,210786.900,329430.800,184459.800,227333.400,207774.500,713341.300,0.000
202545.500,205991.200,210921.900,330127.600,184554.900,227340.800,207923.300,713354.200,0.000
202518.100,205963.600,210810.900,330000.900,184480.900,227332.000,207785.500,713262.800,0.000
202517.500,205964.500,210746.000,328698.000,184425.300,227345.100,207689.900,712723.700,0.000
202523.700,205971.100,210803.700,328572.300,184465.000,227343.100,207754.000,712122.400,0.000
202517.700,205956.500,210769.000,328142.200,184433.500,227337.700,207700.600,711187.800,0.000
202558.900,205993.200,210913.000,328829.000,184534.500,227351.000,207846.200,710744.800,0.000
202528.200,205958.900,210801.800,328694.600,184455.300,227329.900,207695.500,709836.600,0.000
202538.500,205969.000,210751.800,327396.500,184411.800,227346.000,207606.000,708103.600,0.000
202561.800,205997.300,210830.100,327286.900,184468.100,227361.000,207674.800,706962.900,0.000
202564.800,206001.100,210808.300,326873.100,184445.200,227370.500,207620.600,705549.600,0.000
202598.100,206034.300,210943.500,327514.800,184535.700,227382.300,207744.500,704603.600,0.000
202566.600,206003.300,210832.900,327349.900,184457.000,227373.500,207594.900,703247.800,0.000
202562.000,206000.700,210764.900,325988.700,184398.000,227384.500,207491.800,701138.900,0.000
202582.000,206021.500,210837.200,325805.200,184448.400,227395.600,207556.100,699540.700,0.000
202578.400,206010.100,210808.200,325296.900,184413.300,227385.500,207488.000,697668.200,0.000
202629.800,206059.800,210963.300,325864.000,184520.400,227411.200,207634.500,696276.200,0.000
202606.400,206038.900,210868.700,325661.300,184457.400,227414.500,207513.500,694576.400,0.000
202597.200,206034.900,210802.100,324229.900,184401.900,227415.300,207428.200,692237.400,0.000
202620.500,206061.500,210875.400,323898.800,184454.700,227422.900,207506.700,690440.100,0.000
202626.900,206065.500,210850.900,323173.000,184433.500,227434.700,207465.200,688433.500,0.000
202660.200,206099.500,210982.400,323424.200,184523.900,227449.700,207605.400,687116.300,0.000
202622.900,206064.800,210876.000,322890.000,184449.200,227432.900,207494.700,685904.700,0.000
202617.400,206057.400,210811.000,321165.500,184394.900,227433.600,207425.500,684022.300,0.000
202636.200,206079.100,210879.900,320508.800,184445.500,227444.900,207509.500,682620.900,0.000
202635.200,206075.300,210852.100,319454.600,184420.800,227448.000,207474.800,681017.800,0.000
202660.900,206103.400,210979.400,319331.700,184507.600,227456.400,207620.100,679894.900,0.000
202631.400,206079.600,210889.900,318547.300,184452.700,227452.400,207540.300,678609.200,0.000
202625.600,206079.300,210829.400,316616.800,184407.300,227458.400,207482.800,676793.700,0.000
202644.000,206101.000,210897.800,315768.400,184460.000,227465.100,207564.600,675488.200,0.000
202652.500,206101.300,210876.100,314600.900,184442.300,227469.600,207535.400,673977.400,0.000
202697.100,206144.200,211012.400,314356.600,184538.700,227489.200,207685.400,672884.800,0.000
202657.700,206107.400,210912.200,313520.600,184475.600,227468.500,207600.000,671631.400,0.000
202638.400,206090.800,210842.300,311680.300,184425.200,227463.300,207547.200,669921.100,0.000
202665.200,206117.200,210922.100,310998.800,184492.900,227482.900,207656.100,668762.900,0.000
202662.900,206109.600,210893.900,310058.000,184473.400,227481.800,207632.200,667430.100,0.000
202695.500,206141.700,211022.600,310133.700,184568.800,227493.200,207791.500,666598.400,0.000
202680.100,206126.100,210954.100,309857.000,184539.000,227489.700,207756.800,665737.600,0.000
202673.900,206121.200,210900.500,308764.100,184509.900,227493.200,207739.100,664498.700,0.000
202687.400,206134.700,210965.000,308799.200,184565.900,227497.700,207840.600,663773.600,0.000
202677.500,206121.600,210928.100,308585.100,184540.400,227490.900,207814.500,662849.000,0.000
202703.200,206143.600,211045.100,309331.800,184624.900,227493.200,207957.300,662342.400,0.000
202693.400,206137.000,210989.900,309837.600,184610.600,227502.900,207934.100,661796.100,0.000
202694.300,206142.500,210951.000,309605.800,184595.400,227517.500,207922.500,660864.500,0.000
