EEG 1, EEG 2, EEG 3, EEG 4, EEG 5, EEG 6, EEG 7, EEG 8, TRIG
48590.770,50140.140,53936.770,146475.600,23173.680,55347.030,50688.770,146475.600,0.000
160751.800,165869.200,178084.200,487151.300,76839.050,183061.300,167672.500,487151.300,0.000
240085.600,247705.000,265082.500,734571.100,115203.300,273297.200,250333.900,734571.100,0.000
258338.900,266502.800,284031.300,801303.100,124605.000,293919.400,269191.500,801303.100,0.000
259967.300,268145.600,284832.200,817789.300,126055.600,295609.000,270737.000,817789.300,0.000
248298.400,256062.800,271241.300,793229.100,121147.500,282147.800,258548.500,793229.100,0.000
224348.000,231308.100,244323.100,730188.300,110295.800,254712.100,233624.200,730188.300,0.000
210137.100,216616.200,228406.800,694636.800,103904.400,238418.600,218793.800,694636.800,0.000
218947.800,225690.100,238063.000,727301.400,108357.900,248386.000,227883.500,727301.400,0.000
234013.000,241220.600,254573.400,778897.900,115815.100,265473.800,243498.300,778897.900,0.000
231353.400,238455.700,251383.500,777435.200,114899.800,262351.000,240706.100,777435.200,0.000
212256.500,218729.600,230059.600,725877.100,106131.300,240511.300,220822.500,725877.100,0.000
199733.700,205796.900,216167.800,692829.800,100382.600,226193.500,207767.800,692829.800,0.000
206276.800,212542.300,223453.600,716399.200,103639.600,233611.300,214546.400,716399.200,0.000
218321.800,224960.800,236749.800,756732.600,109538.100,247283.300,227052.100,756732.600,0.000
216558.100,223124.000,234656.400,755871.400,108906.100,245208.700,225186.100,755871.400,0.000
201858.500,207940.400,218266.800,713531.100,102098.500,228406.000,209857.400,715684.700,0.000
192066.100,197829.000,207432.700,678565.400,97562.050,217218.600,199646.600,689324.900,0.000
196827.500,202738.800,212776.600,679871.300,99917.700,222622.800,204600.800,706219.100,0.000
205849.000,212043.600,222771.800,691412.400,104321.600,232873.900,213990.600,736143.100,0.000
204548.000,210692.900,221242.900,673490.200,103838.000,231357.600,212618.700,735320.200,0.000
193548.700,199333.600,208983.300,629035.300,98723.040,218796.900,201140.800,705038.700,0.000
186070.400,191610.900,200719.000,596850.000,95242.580,210257.300,193340.600,684659.600,0.000
189222.600,194858.000,204283.300,597164.300,96802.520,213830.000,196630.600,695867.300,0.000
195546.800,201378.400,211310.200,606982.600,99886.320,221014.800,203224.000,716780.900,0.000
194543.100,200337.400,210141.100,595106.300,99492.200,219850.700,202161.400,715897.000,0.000
186625.400,192163.400,201314.400,563483.800,95791.270,210812.200,193883.900,694030.800,0.000
181077.900,186437.000,195188.200,540048.300,93198.720,204478.300,188094.400,678790.900,0.000
182856.500,188269.300,197226.700,539266.200,94093.160,206490.300,189965.900,685287.000,0.000
186882.600,192420.500,201717.200,545279.400,96066.800,211059.500,194173.500,698645.400,0.000
186077.700,191585.300,200788.400,536757.100,95739.020,210124.200,193313.000,697633.600,0.000
180687.400,186017.300,194773.200,514940.400,93216.170,203968.200,187659.100,682693.700,0.000
176734.200,181932.300,190406.500,498197.200,91370.050,199452.500,183527.000,671736.200,0.000
177392.700,182607.200,191193.000,495971.700,91722.910,200192.800,184237.500,674438.900,0.000
179523.600,184805.700,193588.600,498270.600,92778.920,202615.000,186482.800,681225.800,0.000
178827.000,184088.700,192799.100,491887.600,92479.550,201818.700,185747.400,678738.700,0.000
175423.000,180577.400,188999.000,477529.000,90880.620,197936.900,182170.300,667455.000,0.000
172736.300,177804.300,186033.100,465855.800,89624.340,194867.000,179358.600,658017.800,0.000
172528.700,177587.400,185850.500,462274.300,89558.210,194616.600,179162.700,655927.200,0.000
173181.300,178260.400,186608.400,461406.400,89902.880,195351.300,179862.200,656591.600,0.000
172559.500,177620.600,185914.400,456412.700,89626.940,194643.100,179201.100,653740.200,0.000
170682.900,175685.300,183817.100,447589.000,88740.860,192508.800,177216.000,647259.500,0.000
168974.500,173920.600,181932.500,439644.400,87937.800,190560.600,175426.100,641143.800,0.000
168117.800,173031.100,181021.100,434884.600,87551.950,189573.200,174553.500,637403.500,0.000
167646.900,172541.900,180531.400,431452.800,87349.610,189026.900,174080.700,634857.300,0.000
167062.200,171938.900,179885.600,427343.400,87078.090,188359.500,173457.600,632171.300,0.000
166320.700,171176.500,179053.600,422569.900,86724.230,187516.400,172653.900,629135.800,0.000
165363.400,170191.200,178000.700,417414.400,86277.770,186424.300,171646.000,625389.700,0.000
164066.700,168851.400,176596.100,411860.700,85683.670,184942.700,170319.000,620507.700,0.000
162793.000,167534.600,175216.900,406592.400,85097.090,183490.300,169016.400,615694.500,0.000
162216.100,166939.600,174589.100,403096.400,84821.630,182836.900,168409.100,613109.600,0.000
162254.300,166982.300,174630.000,401190.100,84828.050,182886.900,168426.700,612493.600,0.000
161826.200,166544.400,174161.800,398033.000,84625.060,182403.100,167974.600,610459.400,0.000
160253.200,164920.900,172442.300,391988.700,83892.830,180607.000,166352.600,604891.300,0.000
158446.300,163055.200,170468.900,385489.700,83043.950,178543.100,164483.700,598592.000,0.000
157869.200,162460.200,169847.000,382422.900,82761.890,177886.400,163872.900,596057.300,0.000
158428.900,163039.000,170472.100,382520.500,83015.580,178527.900,164435.500,597023.600,0.000
158374.300,162983.200,170415.700,380888.800,82990.780,178466.500,164373.200,596166.000,0.000
156658.800,161211.800,168531.800,374801.900,82188.160,176509.000,162605.000,590280.100,0.000
154534.600,159019.900,166204.300,367756.600,81182.480,174088.000,160410.700,583131.300,0.000
153948.200,158415.400,165575.000,365100.200,80889.450,173422.800,159795.200,580622.200,0.000
154801.200,159295.500,166528.900,366509.700,81277.050,174397.600,160665.200,582508.100,0.000
154968.400,159468.100,166719.500,365903.400,81351.380,174588.700,160831.400,582388.900,0.000
153206.800,157651.400,164782.700,359946.300,80519.630,172582.000,159009.800,576461.600,0.000
150939.700,155315.300,162294.800,352703.200,79441.080,170003.400,156661.700,568959.600,0.000
150343.900,154703.100,161656.600,350283.100,79142.340,169332.100,156036.200,566459.300,0.000
151326.500,155719.000,162757.100,352376.600,79591.860,170457.700,157046.500,568754.600,0.000
151615.800,156019.400,163081.400,352390.500,79722.430,170788.300,157343.200,569036.700,0.000
149888.200,154234.300,161175.900,346706.200,78899.700,168816.100,155551.700,563274.300,0.000
147606.000,151876.300,158665.700,339539.900,77805.650,166214.500,153180.700,555793.400,0.000
147002.300,151252.000,158016.500,337214.200,77500.450,165528.800,152545.900,553299.900,0.000
147995.700,152274.500,159127.800,339451.700,77954.140,166659.400,153567.100,555635.600,0.000
148324.400,152610.100,159494.000,339650.800,78098.770,167029.300,153900.500,556064.900,0.000
146683.200,150913.700,157682.900,334235.800,77314.800,165157.200,152194.700,550603.500,0.000
144483.600,148644.400,155265.700,327341.900,76261.950,162654.200,149908.900,543406.800,0.000
143863.400,148006.300,154604.700,325108.700,75948.000,161953.900,149260.900,540916.000,0.000
144760.400,148933.900,155619.800,327314.600,76354.350,162983.900,150193.100,543024.600,0.000
145060.600,149246.700,155963.800,327705.700,76487.980,163333.700,150510.200,543412.000,0.000
143534.600,147674.400,154283.600,322890.500,75759.640,161599.100,148931.300,538331.400,0.000
141475.400,145552.000,152020.000,316678.700,74770.380,159255.000,146792.400,531593.600,0.000
140853.200,144912.300,151353.700,314731.500,74454.190,158548.800,146141.400,529116.600,0.000
141622.500,145706.300,152225.000,316861.700,74800.980,159427.800,146937.400,530838.600,0.000
141868.000,145958.500,152505.700,317366.500,74907.640,159709.700,147192.000,531063.400,0.000
140474.300,144519.300,150969.400,313156.700,74239.200,158125.800,145747.600,526405.100,0.000
138590.500,142576.400,148898.200,307612.300,73332.450,155986.600,143793.300,520227.600,0.000
137969.100,141936.400,148230.700,305777.300,73019.080,155285.200,143148.400,517772.100,0.000
138576.700,142565.100,148921.000,307528.000,73290.340,155981.700,143780.300,519017.000,0.000
138740.800,142737.300,149111.100,307874.000,73355.210,156170.200,143948.300,519005.500,0.000
137487.900,141445.300,147731.500,304138.300,72749.560,154741.600,142643.200,514779.800,0.000
135797.200,139700.700,145876.100,299234.300,71932.480,152817.300,140884.600,509207.700,0.000
135168.700,139052.700,145203.900,297479.300,71614.840,152107.900,140232.500,506777.500,0.000
135590.500,139489.400,145692.200,298785.200,71799.120,152596.200,140674.800,507503.000,0.000
135656.900,139558.800,145777.700,298934.200,71819.460,152675.600,140744.100,507212.500,0.000
134539.300,138403.600,144549.000,295678.800,71276.200,151400.300,139578.800,503403.000,0.000
133049.200,136864.900,142912.700,291424.100,70551.730,149700.200,138024.700,498439.300,0.000
132435.200,136231.500,142250.300,289726.000,70240.420,149000.300,137380.700,496045.000,0.000
132689.000,136493.400,142547.400,290522.000,70342.540,149291.500,137641.500,496258.800,0.000
132656.100,136459.600,142522.900,290370.700,70311.980,149260.000,137608.700,495679.300,0.000
131658.500,135429.100,141430.300,287462.000,69824.630,148130.400,136577.400,492254.100,0.000
130347.500,134077.300,139994.700,283719.200,69185.290,146643.800,135218.700,487870.000,0.000
129728.300,133441.800,139328.300,282017.800,68870.090,145945.400,134574.900,485517.100,0.000
129808.800,133528.900,139435.500,282366.200,68888.420,146041.800,134657.200,485252.200,0.000
129683.400,133404.300,139308.400,282002.700,68813.620,145902.000,134524.000,484396.300,0.000
128807.900,132504.100,138347.100,279432.900,68382.550,144907.100,133609.100,481315.500,0.000
127675.400,131337.500,137105.300,276125.000,67824.880,143620.600,132426.700,477457.300,0.000
127067.200,130709.600,136451.700,274406.400,67515.020,142931.800,131795.700,475145.600,0.000
126996.600,130634.600,136394.300,274338.900,67462.840,142855.300,131729.700,474449.900,0.000
126772.800,130402.900,136157.800,273688.600,67336.700,142604.800,131499.800,473334.700,0.000
125982.000,129588.100,135289.600,271310.400,66939.660,141709.500,130678.700,470549.000,0.000
124995.200,128573.000,134208.600,268341.700,66449.600,140592.900,129655.400,467160.100,0.000
124394.700,127954.300,133557.400,266438.500,66140.850,139914.900,129030.500,464894.900,0.000
124194.600,127747.400,133348.600,265626.500,66020.480,139690.900,128818.700,463823.600,0.000
123894.900,127440.100,133028.200,264386.100,65854.920,139354.200,128504.200,462476.000,0.000
123194.100,126719.800,132265.600,261997.200,65503.830,138559.600,127776.000,459939.600,0.000
122349.200,125849.800,131345.600,259233.200,65086.680,137600.000,126897.200,456954.500,0.000
121763.900,125245.200,130713.400,257231.400,64788.000,136938.500,126286.100,454734.500,0.000
121451.900,124923.100,130384.100,256043.900,64614.030,136592.500,125960.000,453348.600,0.000
121081.800,124543.800,129988.900,254620.300,64414.130,136182.300,125573.800,451802.900,0.000
120448.300,123892.500,129299.700,252470.400,64092.490,135469.800,124913.000,449467.600,0.000
119712.600,123136.200,128496.600,250061.700,63722.030,134639.000,124142.700,446812.300,0.000
119141.800,122551.300,127878.500,248129.600,63428.030,133994.700,123540.800,444633.300,0.000
118751.100,122152.600,127462.800,246735.200,63218.140,133554.200,123125.900,442997.800,0.000
118331.600,121721.800,127012.400,245170.000,62993.630,133079.700,122680.500,441292.700,0.000
117752.400,121120.900,126380.900,243131.900,62693.440,132422.500,122071.300,439118.800,0.000
117102.500,120446.600,125670.200,240886.300,62358.690,131687.400,121391.100,436734.600,0.000
116538.000,119864.000,125056.300,238874.500,62064.120,131053.100,120801.300,434600.500,0.000
116078.700,119393.200,124561.200,237170.800,61822.310,130539.000,120322.700,432778.300,0.000
115613.300,118917.000,124057.300,235334.800,61577.040,130016.100,119836.000,430953.900,0.000
115065.300,118354.400,123460.000,233202.200,61288.160,129398.200,119263.200,428908.500,0.000
114473.900,117748.100,122816.800,230885.800,60977.530,128732.800,118648.600,426741.000,0.000
113912.500,117172.600,122209.800,228622.100,60682.430,128101.900,118069.000,424653.600,0.000
113395.300,116640.900,121653.300,226519.400,60408.460,127520.700,117536.800,422696.200,0.000
112890.300,116119.700,121106.300,224371.000,60137.230,126951.600,117012.300,420780.100,0.000
112373.100,115584.000,120541.800,222142.000,59857.220,126365.800,116469.100,418831.000,0.000
111840.300,115034.600,119960.000,219817.200,59571.330,125762.200,115908.100,416830.000,0.000
111293.500,114473.000,119366.800,217443.400,59281.910,125144.800,115335.700,414783.200,0.000
110742.400,113906.600,118772.300,215129.000,58990.840,124524.100,114761.100,412731.400,0.000
110210.200,113358.300,118196.900,212824.400,58705.500,123926.700,114203.200,410751.900,0.000
109708.400,112840.500,117652.500,210578.000,58431.930,123364.000,113673.200,408873.000,0.000
109208.900,112327.000,117110.200,208283.000,58161.110,122802.600,113143.800,406992.300,0.000
108668.700,111771.100,116524.800,205860.000,57873.040,122194.200,112574.600,404979.200,0.000
108096.100,111180.600,115904.900,203418.800,57569.760,121549.300,111974.500,402868.300,0.000
107552.300,110621.400,115314.800,201018.600,57278.690,120937.300,111400.700,400849.000,0.000
107066.600,110124.700,114789.100,198780.800,57013.450,120392.500,110886.000,399020.300,0.000
106588.200,109638.000,114274.100,196551.300,56752.020,119859.500,110383.800,397228.600,0.000
106051.100,109087.800,113697.100,194163.700,56465.660,119260.300,109826.300,395256.800,0.000
105465.800,108484.800,113067.800,191726.600,56159.140,118604.400,109220.500,393129.500,0.000
104912.200,107916.000,112470.700,189378.600,55865.740,117984.800,108643.800,391100.400,0.000
104435.600,107427.400,111956.500,187293.900,55605.660,117452.100,108144.800,389314.500,0.000
103978.300,106958.600,111462.800,185278.800,55354.250,116939.100,107665.500,387592.300,0.000
103456.000,106422.000,110897.100,183078.600,55073.820,116348.500,107118.500,385666.000,0.000
102875.900,105826.400,110268.600,180777.600,54769.190,115690.500,106511.900,383554.000,0.000
102328.600,105265.400,109676.500,178581.600,54480.820,115072.000,105939.400,381543.800,0.000
101866.000,104789.600,109179.400,176731.500,54232.640,114552.800,105457.300,379802.600,0.000
101424.000,104334.600,108707.000,175038.500,53995.340,114059.400,104999.800,378139.700,0.000
100907.100,103802.400,108152.400,173195.200,53722.220,113481.200,104465.200,376264.300,0.000
100324.100,103202.600,107525.700,171267.600,53418.420,112826.700,103861.900,374186.100,0.000
99777.840,102641.100,106940.200,169517.600,53133.310,112211.500,103294.100,372202.900,0.000
99325.170,102175.100,106460.400,168239.100,52894.070,111698.900,102823.800,370494.100,0.000
98899.200,101736.900,106009.800,167232.700,52668.850,111216.800,102382.800,368872.000,0.000
98400.060,101224.800,105470.800,166026.600,52405.770,110655.500,101859.900,367041.400,0.000
97830.740,100643.100,104849.700,164547.700,52106.960,110018.600,101260.700,365004.000,0.000
97288.930,100090.400,104262.700,163149.400,51823.460,109415.300,100697.200,363047.600,0.000
96834.590,99622.240,103779.200,162230.400,51584.760,108907.800,100232.600,361349.100,0.000
96410.900,99181.200,103329.500,161573.100,51361.140,108429.000,99796.050,359736.100,0.000
95923.910,98675.380,102797.700,160616.500,51100.090,107874.800,99274.870,357929.500,0.000
95374.680,98107.060,102189.400,159257.700,50804.810,107247.800,98677.980,355926.100,0.000
94853.450,97567.820,101619.900,157936.600,50529.270,106653.300,98121.710,353994.400,0.000
94411.490,97110.130,101150.700,157112.100,50300.080,106151.800,97665.960,352301.900,0.000
93991.640,96678.130,100709.700,156588.800,50083.310,105678.300,97239.230,350692.300,0.000
93507.390,96181.840,100186.500,155812.800,49826.780,105134.100,96733.230,348910.300,0.000
92964.230,95624.850,99590.900,154678.500,49537.600,104524.400,96159.450,346950.700,0.000
92447.060,95094.320,99032.800,153611.700,49268.980,103943.900,95625.480,345052.600,0.000
92001.410,94636.440,98565.450,153020.700,49042.520,103443.500,95180.650,343365.600,0.000
91577.740,94202.090,98124.820,152728.900,48827.460,102968.900,94762.240,341753.400,0.000
91100.510,93711.840,97612.520,152235.800,48576.980,102434.000,94272.950,339991.800,0.000
90571.790,93165.570,97035.680,151425.200,48295.600,101837.500,93717.880,338072.800,0.000
90062.770,92638.580,96488.880,150665.200,48029.000,101260.100,93190.120,336201.000,0.000
89614.610,92174.020,96017.800,150301.300,47797.030,100749.900,92735.880,334507.200,0.000
89188.410,91732.820,95571.590,150185.800,47577.830,100264.900,92308.080,332881.100,0.000
88719.500,91248.160,95065.690,149882.500,47331.480,99734.350,91823.070,331135.300,0.000
88206.780,90719.070,94503.410,149276.500,47058.640,99156.160,91283.650,329260.400,0.000
87708.500,90206.990,93965.010,148695.800,46797.110,98594.970,90769.340,327424.100,0.000
87261.840,89749.220,93491.550,148429.000,46565.790,98091.700,90317.320,325736.300,0.000
86837.700,89314.340,93044.550,148348.300,46349.300,97612.790,89888.950,324106.000,0.000
86378.790,88841.090,92548.950,148098.500,46109.170,97094.090,89410.120,322376.100,0.000
85880.720,88325.710,92004.890,147605.900,45843.330,96530.520,88882.480,320539.000,0.000
85394.180,87822.840,91482.130,147159.000,45588.180,95979.750,88376.920,318733.800,0.000
84948.160,87362.120,91010.190,146973.600,45357.490,95475.150,87921.840,317048.000,0.000
84516.910,86918.020,90556.220,146952.400,45136.800,94988.770,87486.330,315410.200,0.000
84059.990,86449.300,90064.740,146820.600,44899.420,94475.950,87014.220,313698.100,0.000
83576.460,85954.530,89538.910,146509.500,44645.350,93933.050,86507.330,311903.700,0.000
83099.720,85466.730,89027.960,146237.800,44396.660,93396.580,86014.480,310132.300,0.000
82651.680,85006.420,88551.750,146144.000,44161.430,92892.020,85553.320,308452.800,0.000
82217.390,84558.460,88091.050,146156.500,43933.400,92401.640,85106.730,306813.000,0.000
81763.160,84087.940,87600.890,146083.300,43690.250,91887.990,84629.880,305118.700,0.000
81286.450,83593.270,87083.330,145880.900,43433.550,91349.030,84125.600,303360.600,0.000
80816.310,83106.270,86579.980,145715.000,43185.410,90818.690,83638.040,301618.800,0.000
80369.460,82644.820,86103.020,145647.800,42949.530,90315.970,83177.090,299946.400,0.000
79934.470,82198.910,85640.160,145634.600,42722.240,89826.760,82730.860,298306.500,0.000
79490.080,81743.820,85160.850,145581.200,42489.630,89327.150,82267.040,296631.500,0.000
79032.730,81272.670,84664.670,145468.700,42250.230,88812.220,81784.670,294913.000,0.000
78575.420,80800.680,84175.270,145395.800,42013.000,88297.550,81310.560,293203.800,0.000
78129.280,80339.980,83697.770,145355.800,41776.920,87795.280,80847.560,291542.200,0.000
77690.460,79886.580,83230.090,145328.200,41544.050,87298.860,80392.930,289905.800,0.000
77244.560,79425.840,82751.460,145282.800,41305.820,86794.360,79925.140,288247.800,0.000
76792.330,78959.270,82263.740,145213.000,41064.820,86282.240,79446.880,286561.800,0.000
76343.970,78497.410,81783.230,145162.500,40829.310,85773.220,78977.070,284882.800,0.000
75901.960,78041.840,81305.540,145057.400,40592.680,85273.080,78510.300,283235.100,0.000
75463.720,77590.800,80834.070,144898.500,40358.550,84778.740,78051.560,281605.700,0.000
75022.230,77135.360,80358.130,144724.200,40122.550,84281.140,77588.750,279966.100,0.000
74577.000,76674.670,79878.520,144547.200,39886.090,83779.960,77122.960,278310.600,0.000
74135.450,76219.160,79408.200,144385.700,39657.800,83284.300,76667.940,276660.200,0.000
73700.510,75771.840,78942.050,144139.000,39431.170,82796.590,76214.090,275029.300,0.000
73269.210,75328.690,78482.800,143832.800,39206.720,82310.610,75766.590,273411.000,0.000
72836.950,74883.160,78021.540,143554.800,38980.710,81821.550,75317.140,271790.700,0.000
72404.640,74436.820,77558.910,143328.900,38756.110,81331.520,74867.960,270165.200,0.000
71972.550,73991.410,77098.000,143139.300,38534.580,80841.680,74425.120,268542.800,0.000
71539.200,73544.020,76627.860,142839.800,38305.670,80352.170,73974.330,266928.700,0.000
71107.090,73097.470,76161.150,142460.700,38077.970,79865.930,73529.840,265324.200,0.000
70674.230,72649.450,75696.730,142124.000,37850.350,79379.550,73087.320,263724.900,0.000
70241.090,72201.850,75234.740,141862.500,37623.080,78891.800,72644.600,262126.200,0.000
69811.580,71761.160,74778.090,141629.600,37401.230,78407.640,72206.950,260529.400,0.000
69388.550,71328.200,74317.140,141235.900,37177.790,77929.590,71761.680,258935.100,0.000
68975.490,70902.980,73866.750,140719.500,36960.410,77457.360,71325.400,257347.100,0.000
68566.590,70476.090,73423.500,140250.500,36744.730,76984.500,70894.350,255768.100,0.000
68153.040,70041.200,72977.410,139879.500,36524.670,76505.430,70461.160,254194.800,0.000
67732.070,69600.910,72523.870,139540.100,36300.700,76020.490,70025.460,252619.900,0.000
67309.090,69161.680,72059.030,139028.200,36071.930,75537.360,69579.540,251040.800,0.000
66890.230,68730.470,71604.880,138390.000,35852.920,75064.700,69147.310,249465.900,0.000
66473.410,68302.750,71160.170,137796.500,35639.410,74599.680,68724.310,247902.900,0.000
66058.250,67876.630,70720.230,137289.100,35427.380,74136.440,68303.530,246350.200,0.000
65642.170,67451.160,70280.550,136795.400,35216.790,73671.630,67884.270,244797.200,0.000
65224.350,67024.720,69829.730,136118.100,35000.160,73206.330,67453.660,243235.700,0.000
64810.310,66601.440,69386.950,135338.700,34788.890,72742.820,67033.480,241675.200,0.000
64400.280,66178.150,68952.340,134658.100,34579.750,72277.790,66620.130,240129.500,0.000
63993.680,65755.460,68520.930,134105.200,34370.070,71812.870,66208.460,238597.800,0.000
63583.750,65331.040,68084.630,133578.000,34158.550,71346.980,65796.310,237065.500,0.000
63163.010,64896.940,67627.090,132859.400,33933.690,70874.270,65364.270,235521.600,0.000
62739.100,64461.430,67172.230,132021.500,33710.740,70400.670,64936.820,233977.100,0.000
62320.950,64033.290,66730.780,131267.000,33495.270,69934.040,64519.850,232448.800,0.000
61910.310,63614.090,66300.230,130633.200,33286.110,69475.450,64110.730,230935.100,0.000
61502.790,63199.920,65873.200,130035.800,33081.950,69020.460,63707.770,229420.800,0.000
61095.890,62785.140,65436.090,129280.400,32872.850,68564.900,63293.340,227896.300,0.000
60692.550,62371.100,65005.880,128445.100,32667.460,68109.490,62886.800,226372.100,0.000
60291.980,61956.900,64582.370,127714.300,32462.720,67655.000,62486.550,224862.700,0.000
59893.630,61545.360,64162.530,127110.000,32258.480,67203.880,62090.730,223368.000,0.000
59492.520,61132.920,63740.330,126541.800,32055.550,66752.540,61697.490,221873.600,0.000
59082.110,60710.280,63299.540,125804.500,31841.780,66295.150,61284.390,220368.000,0.000
58666.970,60285.750,62861.490,124959.700,31629.380,65836.890,60873.480,218861.400,0.000
58255.190,59868.270,62434.780,124179.500,31421.780,65384.940,60470.260,217368.600,0.000
57851.870,59458.390,62017.140,123488.700,31217.560,64939.610,60072.440,215889.700,0.000
57453.010,59050.870,61598.510,122804.300,31012.960,64493.680,59672.050,214412.000,0.000
57053.950,58640.610,61161.570,121901.700,30795.530,64043.200,59244.750,212923.900,0.000
56658.950,58232.620,60728.230,120836.600,30579.880,63593.470,58819.580,211433.400,0.000
56271.250,57830.160,60307.540,119824.300,30371.360,63148.650,58408.060,209955.500,0.000
55891.790,57435.230,59899.330,118933.900,30170.720,62710.680,58009.700,208492.600,0.000
55511.650,57040.850,59494.530,118125.800,29975.670,62276.140,57621.670,207033.700,0.000
55120.110,56636.490,59072.830,117245.000,29772.160,61838.840,57222.640,205568.000,0.000
54722.520,56229.890,58653.640,116367.800,29571.520,61398.890,56833.140,204103.500,0.000
54326.880,55827.300,58243.070,115642.600,29374.670,60959.300,56452.100,202652.300,0.000
53933.000,55426.070,57834.930,115057.400,29177.100,60521.500,56073.450,201214.000,0.000
53538.100,55024.110,57424.750,114533.500,28978.710,60083.160,55696.490,199778.100,0.000
53148.030,54626.090,57007.330,113903.300,28776.100,59646.110,55306.450,198337.000,0.000
52770.950,54239.360,56604.320,113219.900,28584.300,59216.340,54929.010,196897.800,0.000
52399.410,53853.870,56209.350,112610.100,28396.560,58790.800,54559.530,195469.000,0.000
52022.020,53460.980,55809.530,112070.500,28202.970,58362.480,54185.280,194049.700,0.000
51635.720,53063.140,55401.910,111541.800,28004.060,57928.140,53805.610,192632.700,0.000
51245.320,52663.030,54980.200,110864.800,27795.780,57490.740,53407.930,191211.100,0.000
50859.290,52268.710,54566.820,110094.000,27595.490,57059.280,53020.370,189790.300,0.000
50478.990,51881.310,54163.800,109359.800,27403.640,56636.930,52644.070,188378.900,0.000
50101.500,51497.460,53765.810,108672.600,27213.780,56219.520,52271.500,186977.300,0.000
49721.210,51111.750,53367.290,108002.600,27021.750,55799.040,51899.150,185578.600,0.000
49334.600,50718.310,52952.760,107216.600,26815.680,55370.430,51506.020,184175.700,0.000
48947.320,50323.680,52540.520,106365.000,26609.610,54937.980,51115.930,182773.200,0.000
48566.370,49932.670,52136.020,105556.400,26407.810,54507.560,50731.650,181379.200,0.000
48195.390,49547.940,51738.230,104777.900,26210.760,54084.450,50351.290,179994.100,0.000
47829.560,49168.690,51344.230,103982.300,26018.810,53668.280,49977.050,178611.800,0.000
47460.010,48786.490,50937.110,103031.800,25818.010,53252.480,49587.400,177225.800,0.000
47084.760,48400.560,50529.390,101973.300,25616.210,52834.860,49200.960,175840.000,0.000
46706.260,48014.050,50123.700,100920.700,25414.530,52416.900,48817.160,174461.500,0.000
46328.620,47631.130,49721.070,99882.550,25213.390,52000.830,48433.120,173090.400,0.000
45952.440,47250.390,49321.730,98841.210,25014.740,51586.220,48052.780,171722.200,0.000
45577.540,46867.100,48913.010,97687.050,24809.000,51171.220,47658.920,170352.200,0.000
45206.540,46485.300,48509.790,96467.340,24606.130,50755.780,47270.020,168983.700,0.000
44841.480,46108.770,48114.700,95277.160,24407.210,50343.060,46884.790,167621.300,0.000
44482.440,45739.060,47726.060,94117.200,24211.360,49935.680,46501.860,166266.100,0.000
44121.470,45368.650,47338.280,92975.680,24015.430,49526.700,46121.520,164914.800,0.000
43757.070,44993.910,46939.800,91753.130,23812.240,49115.380,45728.070,163563.100,0.000
43396.660,44624.300,46549.130,90489.960,23617.820,48708.820,45346.200,162213.400,0.000
43037.960,44256.290,46161.920,89261.130,23426.450,48303.750,44967.950,160869.300,0.000
42678.500,43886.680,45772.770,88056.630,23232.610,47899.240,44588.070,159530.700,0.000
42319.720,43518.780,45385.750,86875.960,23041.490,47497.680,44216.860,158195.600,0.000
41961.940,43150.620,44992.260,85638.120,22845.020,47096.130,43836.070,156860.800,0.000
41605.840,42783.570,44605.810,84382.470,22652.810,46694.910,43462.560,155528.800,0.000
41251.230,42417.790,44225.640,83181.010,22464.260,46294.950,43094.100,154203.200,0.000
40899.150,42054.550,43849.170,82027.980,22277.190,45896.400,42726.990,152884.000,0.000
40547.820,41692.140,43474.760,80919.200,22092.500,45499.450,42365.450,151568.900,0.000
40196.800,41329.350,43090.490,79763.710,21901.900,45105.640,41991.740,150255.100,0.000
39848.000,40971.770,42709.940,78582.810,21715.130,44714.940,41623.370,148944.200,0.000
39499.660,40615.960,42331.260,77429.870,21528.320,44322.920,41255.120,147637.600,0.000
39153.800,40260.430,41954.290,76294.980,21340.710,43931.870,40885.040,146335.400,0.000
38808.590,39903.240,41580.150,75185.460,21154.800,43541.730,40518.170,145037.000,0.000
38459.430,39540.470,41195.990,74028.850,20959.540,43149.300,40135.660,143739.300,0.000
38111.580,39181.700,40818.970,72852.950,20769.160,42760.050,39761.710,142443.400,0.000
37767.730,38829.020,40449.030,71703.550,20584.880,42375.270,39395.500,141151.800,0.000
37424.860,38477.630,40079.510,70564.030,20400.810,41991.050,39029.520,139864.300,0.000
37083.670,38128.160,39714.130,69456.160,20220.510,41607.540,38669.040,138581.200,0.000
36746.980,37781.860,39346.230,68332.560,20039.010,41227.890,38299.040,137301.900,0.000
36411.950,37437.770,38983.350,67215.950,19862.360,40850.680,37937.640,136026.800,0.000
36073.950,37090.270,38618.770,66137.310,19684.040,40470.480,37580.190,134754.300,0.000
35737.300,36742.700,38254.480,65084.350,19504.230,40090.300,37224.380,133485.300,0.000
35404.460,36396.870,37897.230,64078.930,19327.710,39711.800,36874.490,132223.000,0.000
35073.180,36049.470,37536.560,63065.340,19144.910,39332.120,36510.770,130964.100,0.000
34744.070,35706.310,37182.700,62060.090,18967.290,38955.450,36156.490,129707.300,0.000
34413.690,35365.570,36829.260,61090.350,18793.010,38582.270,35811.430,128453.700,0.000
34080.260,35025.410,36472.340,60139.590,18617.800,38210.270,35468.640,127204.300,0.000
33747.490,34688.320,36119.040,59231.210,18446.240,37839.460,35131.640,125960.200,0.000
33416.890,34349.690,35760.750,58315.300,18268.730,37467.030,34779.680,124720.200,0.000
33087.220,34009.120,35405.940,57400.440,18091.770,37093.260,34429.820,123484.400,0.000
32756.250,33666.570,35051.540,56504.100,17915.140,36719.340,34083.390,122251.800,0.000
32426.030,33325.300,34698.180,55612.160,17739.770,36346.770,33739.540,121021.700,0.000
32101.270,32991.230,34353.400,54755.760,17571.370,35979.590,33404.540,119796.100,0.000
31781.650,32661.760,34006.160,53892.370,17399.680,35616.780,33059.520,118574.600,0.000
31461.040,32332.000,33658.660,53019.230,17227.750,35253.590,32719.200,117357.100,0.000
31134.710,31996.840,33304.230,52128.050,17051.920,34887.820,32379.000,116142.500,0.000
30805.400,31658.480,32944.080,51188.720,16872.250,34520.730,32034.050,114929.600,0.000
30477.570,31322.330,32587.440,50238.390,16695.660,34154.070,31692.470,113720.100,0.000
30154.740,30989.600,32231.330,49266.860,16518.150,33790.830,31344.360,112514.700,0.000
29836.290,30661.660,31887.150,48313.160,16349.630,33433.680,31011.990,111314.400,0.000
29515.990,30333.850,31547.210,47401.220,16185.130,33078.940,30689.030,110118.100,0.000
29192.500,30004.360,31205.860,46512.140,16018.220,32721.780,30364.130,108925.000,0.000
28868.730,29675.300,30866.460,45670.090,15850.570,32361.110,30039.520,107736.600,0.000
28547.760,29347.250,30521.510,44840.380,15676.210,31999.830,29701.510,106551.900,0.000
28232.310,29023.330,30182.080,44030.920,15506.960,31642.320,29372.100,105371.300,0.000
27919.660,28699.980,29843.640,43237.550,15340.830,31286.970,29047.850,104194.600,0.000
27606.460,28375.310,29503.450,42431.380,15172.720,30930.890,28721.260,103020.100,0.000
27290.470,28049.770,29164.950,41642.730,15003.300,30573.030,28395.690,101848.400,0.000
26971.190,27722.250,28819.870,40850.650,14826.080,30214.740,28056.870,100679.500,0.000
26653.550,27399.390,28481.760,40074.220,14655.570,29860.730,27726.940,99514.980,0.000
26340.660,27081.050,28149.420,39316.630,14492.110,29510.970,27403.330,98355.030,0.000
26032.860,26764.980,27820.650,38553.180,14331.810,29164.690,27081.910,97198.300,0.000
25728.020,26450.620,27497.680,37816.700,14175.430,28820.840,26768.570,96045.750,0.000
25424.440,26135.420,27169.950,37089.290,14013.330,28477.150,26445.710,94897.650,0.000
25121.950,25821.530,26844.880,36378.980,13853.140,28133.980,26128.510,93754.070,0.000
24816.660,25505.300,26515.570,35673.630,13690.500,27789.140,25810.300,92612.940,0.000
24509.800,25187.790,26183.470,34949.200,13525.410,27444.200,25489.290,91473.880,0.000
24203.300,24872.390,25857.570,34244.650,13364.590,27101.600,25175.600,90339.270,0.000
23894.270,24555.770,25526.770,33545.470,13197.700,26758.340,24852.130,89207.690,0.000
23584.390,24240.580,25198.370,32861.640,13032.200,26414.610,24534.620,88078.590,0.000
23278.340,23927.470,24871.330,32183.470,12869.200,26072.360,24219.890,86951.750,0.000
22979.790,23618.440,24547.420,31486.660,12709.490,25733.250,23905.260,85828.520,0.000
22686.310,23313.550,24230.870,30807.880,12555.550,25396.160,23597.280,84711.550,0.000
22392.100,23006.980,23909.350,30130.590,12394.610,25057.680,23277.990,83598.190,0.000
22096.530,22701.660,23589.830,29460.170,12233.090,24719.940,22963.770,82487.410,0.000
21801.060,22398.600,23270.310,28788.440,12072.470,24386.020,22653.640,81380.220,0.000
21505.640,22096.150,22950.280,28093.340,11912.680,24055.360,22344.360,80276.230,0.000
21209.010,21792.970,22633.960,27410.640,11757.340,23725.490,22041.790,79175.460,0.000
20912.520,21486.530,22314.810,26732.670,11599.120,23394.470,21730.240,78076.950,0.000
20617.250,21179.990,22000.640,26068.380,11443.370,23062.440,21423.240,76982.170,0.000
20322.470,20874.990,21684.340,25399.330,11285.180,22730.380,21115.750,75892.170,0.000
20033.990,20577.640,21369.200,24700.190,11127.680,22403.880,20809.890,74806.340,0.000
19752.740,20289.260,21064.080,24012.560,10979.120,22084.460,20516.450,73725.300,0.000
19468.900,19998.090,20754.580,23328.420,10826.360,21764.080,20214.630,72647.100,0.000
19177.850,19700.240,20443.370,22650.110,10671.260,21438.480,19913.290,71570.340,0.000
18881.710,19396.040,20126.410,21957.940,10511.440,21107.700,19606.830,70494.550,0.000
18584.700,19090.380,19805.700,21228.260,10347.850,20774.600,19294.930,69419.470,0.000
18289.960,18787.590,19491.240,20509.750,10189.000,20443.530,18990.420,68346.420,0.000
17999.060,18485.970,19178.310,19814.210,10031.190,20116.950,18683.100,67277.230,0.000
17712.420,18189.730,18873.110,19155.040,9880.407,19795.950,18387.290,66214.840,0.000
17428.330,17898.120,18567.640,18506.950,9730.815,19478.220,18094.800,65158.890,0.000
17147.410,17609.420,18262.190,17838.180,9581.004,19162.480,17801.650,64107.890,0.000
16870.120,17324.630,17964.720,17186.060,9436.454,18848.850,17515.820,63061.530,0.000
16595.660,17041.490,17666.660,16548.320,9289.771,18536.960,17221.880,62017.380,0.000
16323.270,16760.510,17373.760,15929.920,9146.370,18226.730,16933.160,60974.810,0.000
16050.700,16479.210,17079.530,15308.790,9001.203,17916.380,16644.640,59934.570,0.000
15775.520,16195.820,16780.860,14658.060,8851.793,17605.090,16353.670,58897.750,0.000
15495.530,15910.190,16482.390,14015.690,8703.898,17293.440,16069.210,57864.740,0.000
15214.930,15623.990,16180.370,13382.430,8554.000,16984.000,15779.080,56834.440,0.000
14937.160,15339.670,15883.510,12763.660,8408.182,16675.420,15494.360,55808.110,0.000
14659.110,15052.250,15583.890,12136.150,8259.860,16362.650,15206.110,54785.340,0.000
14383.270,14766.120,15284.390,11477.350,8110.608,16050.660,14916.180,53765.140,0.000
14110.880,14485.080,14993.760,10830.250,7967.540,15742.680,14636.150,52748.190,0.000
13838.630,14204.070,14700.490,10195.550,7821.087,15435.520,14350.030,51733.780,0.000
13568.330,13926.730,14411.350,9578.721,7677.653,15130.890,14070.840,50723.430,0.000
13301.360,13652.750,14123.160,8958.428,7535.537,14829.360,13792.390,49717.590,0.000
13035.910,13379.580,13834.130,8309.563,7393.203,14530.080,13511.130,48714.130,0.000
12769.230,13106.340,13548.120,7674.601,7253.868,14230.940,13235.310,47712.750,0.000
12501.760,12831.090,13257.570,7057.302,7109.708,13929.880,12950.740,46714.390,0.000
12234.810,12555.750,12970.510,6459.009,6966.790,13627.850,12669.950,45720.190,0.000
11965.860,12277.510,12681.260,5854.082,6820.819,13323.910,12386.540,44729.140,0.000
11696.800,11999.310,12390.990,5219.762,6673.305,13021.670,12102.370,43741.220,0.000
11429.230,11724.550,12106.790,4599.249,6531.935,12723.570,11831.230,42757.350,0.000
11162.130,11449.600,11818.600,3994.948,6387.790,12425.250,11556.120,41776.040,0.000
10896.800,11176.800,11533.060,3409.264,6245.928,12126.990,11284.430,40797.190,0.000
10631.500,10903.960,11246.230,2820.397,6103.039,11829.090,11009.490,39821.050,0.000
10368.120,10631.790,10960.240,2206.770,5959.180,11532.380,10732.510,38848.500,0.000
10109.360,10364.370,10683.160,1607.579,5821.608,11239.210,10466.130,37880.730,0.000
9852.094,10098.430,10404.860,1020.579,5682.199,10947.810,10194.730,36916.550,0.000
9594.543,9834.983,10130.960,447.369,5545.671,10658.220,9928.221,35955.220,0.000
9337.788,9574.515,9858.224,-126.753,5410.832,10371.790,9662.546,34997.320,0.000
9083.506,9315.806,9586.136,-718.429,5276.751,10087.740,9395.551,34044.960,0.000
8827.694,9054.318,9316.199,-1294.394,5144.050,9801.193,9133.328,33096.900,0.000
8568.141,8787.627,9038.422,-1859.300,5004.456,9511.348,8863.619,32148.710,0.000
8309.916,8523.164,8763.270,-2406.609,4867.352,9223.862,8601.920,31201.980,0.000
8053.717,8259.658,8487.358,-2952.390,4729.850,8936.982,8339.060,30259.380,0.000
7798.818,7995.585,8210.407,-3520.136,4590.290,8649.018,8070.363,29319.650,0.000
7545.500,7733.875,7939.915,-4075.154,4455.555,8362.628,7809.261,28382.010,0.000
7295.437,7475.445,7669.856,-4614.488,4320.908,8079.568,7546.655,27448.480,0.000
7050.295,7223.693,7408.657,-5130.167,4193.994,7802.470,7295.531,26521.360,0.000
6804.128,6973.385,7147.808,-5642.104,4069.030,7528.423,7045.923,25597.240,0.000
6551.570,6719.025,6879.998,-6179.238,3938.308,7252.084,6789.028,24672.970,0.000
6295.355,6461.275,6611.387,-6707.625,3805.819,6972.662,6534.899,23751.090,0.000
6042.753,6203.200,6340.519,-7222.154,3670.229,6693.075,6275.897,22833.990,0.000
5796.941,5950.227,6076.868,-7718.479,3539.839,6416.485,6024.165,21921.690,0.000
5554.086,5698.988,5813.345,-8216.682,3409.661,6141.242,5771.597,21011.790,0.000
5311.639,5447.524,5547.926,-8741.616,3276.974,5865.752,5514.907,20103.590,0.000
5069.533,5196.322,5288.194,-9261.661,3147.246,5590.243,5264.166,19199.230,0.000
4828.409,4942.937,5026.655,-9775.714,3014.958,5314.595,5007.267,18298.600,0.000
4587.515,4691.402,4767.730,-10276.840,2885.611,5039.915,4754.638,17401.310,0.000
4343.777,4441.992,4506.192,-10777.320,2755.327,4766.310,4501.164,16506.580,0.000
4098.399,4194.419,4243.149,-11297.380,2623.575,4495.107,4246.984,15613.710,0.000
3854.524,3949.885,3986.260,-11807.560,2496.871,4227.059,4002.462,14724.610,0.000
3613.918,3706.448,3728.515,-12309.130,2369.393,3961.504,3755.635,13839.770,0.000
3376.038,3463.559,3474.241,-12798.230,2243.910,3696.712,3514.122,12957.940,0.000
3137.711,3216.105,3215.623,-13290.500,2113.062,3427.680,3265.809,12077.740,0.000
2900.876,2966.604,2954.385,-13803.530,1978.600,3156.888,3011.967,11199.320,0.000
2667.858,2721.072,2701.261,-14303.680,1851.489,2889.052,2769.201,10324.940,0.000
2434.634,2475.882,2447.556,-14794.610,1723.245,2620.140,2521.969,9454.095,0.000
2198.010,2231.120,2196.502,-15274.000,1596.607,2350.387,2277.494,8585.122,0.000
1960.902,1989.031,1945.766,-15749.370,1472.709,2086.554,2035.301,7718.809,0.000
1727.049,1752.309,1697.253,-16235.170,1352.116,1830.353,1796.517,6857.094,0.000
1493.110,1518.527,1453.434,-16706.800,1234.683,1575.145,1565.295,6000.415,0.000
1258.155,1283.068,1204.766,-17172.960,1111.865,1317.310,1326.012,5146.903,0.000
1026.526,1048.689,959.386,-17632.040,990.830,1059.326,1090.124,4295.540,0.000
795.979,809.909,710.584,-18096.330,865.419,797.231,848.717,3445.378,0.000
565.666,567.059,457.010,-18579.080,733.766,530.447,599.284,2597.489,0.000
337.393,328.351,208.281,-19051.140,606.490,266.873,357.593,1753.634,0.000
109.781,93.331,-40.562,-19521.320,481.112,11.787,117.708,912.281,0.000
-116.065,-136.066,-280.402,-19983.880,364.388,-234.742,-109.058,74.298,0.000
-340.717,-363.690,-516.717,-20446.210,250.017,-481.773,-336.406,-759.555,0.000
-565.613,-593.754,-755.196,-20927.010,131.631,-735.396,-572.994,-1591.180,0.000
-789.697,-823.809,-991.227,-21402.740,14.159,-989.531,-805.897,-2421.067,0.000
-1012.246,-1053.559,-1230.235,-21877.940,-106.023,-1239.651,-1041.379,-3248.238,0.000
-1232.138,-1280.371,-1464.459,-22342.440,-222.917,-1488.283,-1270.066,-4070.887,0.000
-1448.461,-1504.918,-1698.000,-22802.130,-339.873,-1736.991,-1500.658,-4889.712,0.000
-1662.566,-1728.139,-1932.933,-23274.790,-457.532,-1982.892,-1732.414,-5706.304,0.000
-1879.724,-1953.051,-2166.905,-23740.040,-573.500,-2229.071,-1956.573,-6520.397,0.000
-2100.110,-2182.180,-2406.287,-24206.050,-695.310,-2478.903,-2188.312,-7331.295,0.000
-2318.278,-2408.199,-2639.523,-24662.740,-812.814,-2725.892,-2413.535,-8138.403,0.000
-2535.188,-2630.550,-2870.694,-25115.730,-927.140,-2967.479,-2636.061,-8943.559,0.000
-2752.317,-2850.228,-3102.362,-25581.840,-1041.324,-3205.825,-2859.980,-9747.459,0.000
-2968.638,-3067.926,-3329.725,-26035.730,-1151.752,-3443.060,-3076.455,-10548.160,0.000
-3186.097,-3290.189,-3563.210,-26486.620,-1267.593,-3683.844,-3300.276,-11345.750,0.000
-3406.675,-3515.954,-3798.056,-26934.030,-1385.452,-3928.991,-3524.461,-12140.590,0.000
-3627.355,-3741.458,-4034.332,-27381.850,-1504.473,-4173.665,-3750.976,-12932.560,0.000
-3842.098,-3963.004,-4267.014,-27836.990,-1620.596,-4413.651,-3975.650,-13721.280,0.000
-4051.418,-4180.314,-4490.415,-28273.790,-1729.405,-4651.653,-4189.720,-14506.100,0.000
-4258.645,-4396.013,-4714.921,-28704.930,-1840.238,-4890.134,-4408.770,-15287.790,0.000
-4465.453,-4609.877,-4937.062,-29129.710,-1950.776,-5127.763,-4625.408,-16066.670,0.000
-4673.722,-4825.200,-5162.009,-29552.570,-2064.889,-5364.187,-4844.925,-16843.230,0.000
-4881.792,-5039.229,-5387.358,-29984.130,-2179.741,-5596.468,-5064.453,-17617.120,0.000
-5089.714,-5250.439,-5607.710,-30402.340,-2289.175,-5826.907,-5275.446,-18387.500,0.000
-5296.196,-5460.979,-5831.179,-30817.540,-2400.091,-6058.390,-5492.045,-19154.890,0.000
-5499.287,-5667.560,-6049.651,-31225.770,-2507.169,-6287.711,-5702.100,-19918.830,0.000
-5703.705,-5876.203,-6269.375,-31634.940,-2616.812,-6517.467,-5913.799,-20680.180,0.000
-5908.612,-6088.276,-6490.725,-32055.630,-2729.167,-6748.430,-6129.885,-21439.070,0.000
-6112.161,-6300.106,-6707.459,-32464.950,-2836.994,-6979.208,-6338.956,-22194.700,0.000
-6317.100,-6514.133,-6929.542,-32878.120,-2949.331,-7211.200,-6554.145,-22948.380,0.000
-6521.600,-6724.914,-7148.338,-33285.820,-3059.216,-7441.028,-6764.081,-23699.600,0.000
-6723.730,-6931.283,-7364.590,-33685.350,-3166.363,-7667.596,-6973.060,-24447.810,0.000
-6923.686,-7135.460,-7579.278,-34091.840,-3273.366,-7892.281,-7183.454,-25192.860,0.000
-7124.888,-7338.479,-7790.733,-34490.380,-3378.363,-8115.477,-7385.931,-25934.780,0.000
-7329.812,-7545.452,-8009.883,-34894.260,-3489.628,-8339.677,-7594.804,-26674.950,0.000
-7532.838,-7753.381,-8226.367,-35290.200,-3598.197,-8564.211,-7799.923,-27411.920,0.000
-7730.655,-7960.314,-8440.369,-35676.050,-3703.820,-8788.546,-8005.379,-28144.850,0.000
-7925.353,-8165.830,-8653.980,-36069.660,-3810.033,-9012.933,-8214.188,-28875.630,0.000
-8118.995,-8367.822,-8862.389,-36453.660,-3912.196,-9235.018,-8415.885,-29604.670,0.000
-8312.649,-8568.311,-9072.345,-36836.420,-4015.957,-9455.052,-8620.854,-30330.860,0.000
-8507.912,-8767.018,-9278.802,-37209.620,-4118.472,-9674.856,-8819.999,-31053.200,0.000
-8706.718,-8966.468,-9488.619,-37577.500,-4224.105,-9894.166,-9019.945,-31772.600,0.000
-8904.644,-9165.379,-9700.111,-37954.400,-4330.654,-10109.760,-9221.222,-32489.670,0.000
-9097.231,-9361.850,-9904.025,-38320.890,-4430.481,-10322.470,-9414.173,-33203.650,0.000
-9286.048,-9559.992,-10110.010,-38689.480,-4532.568,-10536.970,-9613.441,-33914.500,0.000
-9473.530,-9757.551,-10313.850,-39051.670,-4633.479,-10752.050,-9809.028,-34622.200,0.000
-9662.687,-9955.967,-10519.740,-39408.880,-4736.205,-10968.160,-10006.600,-35327.710,0.000
-9853.151,-10154.770,-10727.130,-39776.300,-4841.314,-11186.430,-10209.470,-36031.200,0.000
-10042.010,-10347.840,-10927.090,-40132.130,-4940.427,-11401.740,-10405.110,-36731.550,0.000
-10229.070,-10537.320,-11126.240,-40484.940,-5038.176,-11611.540,-10601.270,-37428.780,0.000
-10415.910,-10725.880,-11320.770,-40828.360,-5131.637,-11817.850,-10788.140,-38122.530,0.000
-10604.630,-10917.050,-11518.380,-41169.770,-5228.179,-12025.040,-10976.910,-38814.210,0.000
-10793.180,-11109.770,-11719.810,-41524.300,-5330.207,-12233.960,-11172.570,-39504.440,0.000
-10979.450,-11301.670,-11917.620,-41865.600,-5430.679,-12443.610,-11363.250,-40191.310,0.000
-11163.960,-11495.490,-12119.590,-42204.820,-5535.123,-12655.560,-11560.720,-40875.520,0.000
-11343.580,-11685.400,-12315.520,-42539.900,-5634.146,-12865.520,-11752.410,-41557.100,0.000
-11519.540,-11870.060,-12507.920,-42881.650,-5729.148,-13070.060,-11941.020,-42235.810,0.000
-11698.120,-12053.980,-12703.110,-43251.940,-5827.198,-13272.380,-12131.990,-42912.790,0.000
-11880.570,-12238.940,-12897.130,-43622.560,-5925.038,-13475.520,-12318.280,-43587.390,0.000
-12063.540,-12425.410,-13094.090,-43992.720,-6025.312,-13679.050,-12510.570,-44258.850,0.000
-12245.520,-12611.000,-13286.280,-44352.530,-6121.564,-13881.180,-12697.620,-44927.100,0.000
-12428.500,-12799.250,-13479.970,-44703.150,-6218.533,-14084.620,-12885.820,-45593.270,0.000
-12610.310,-12988.330,-13675.780,-45059.120,-6317.141,-14289.480,-13076.680,-46257.300,0.000
-12788.170,-13172.800,-13866.120,-45404.020,-6411.173,-14492.150,-13258.730,-46918.000,0.000
-12962.360,-13353.170,-14057.670,-45751.380,-6506.333,-14690.630,-13442.960,-47575.590,0.000
-13133.770,-13528.410,-14242.670,-46093.460,-6596.807,-14884.460,-13619.570,-48229.610,0.000
-13305.750,-13703.860,-14426.950,-46431.180,-6687.822,-15078.830,-13798.010,-48880.630,0.000
-13479.960,-13882.710,-14615.400,-46780.330,-6782.848,-15276.450,-13983.690,-49530.380,0.000
-13656.910,-14063.570,-14802.970,-47122.800,-6876.417,-15474.600,-14165.020,-50178.870,0.000
-13834.730,-14246.460,-14993.830,-47466.850,-6973.271,-15672.080,-14349.940,-50824.900,0.000
-14009.620,-14426.960,-15178.960,-47799.270,-7066.930,-15867.960,-14526.510,-51466.540,0.000
-14183.590,-14607.210,-15365.750,-48118.320,-7161.541,-16064.100,-14703.300,-52104.560,0.000
-14358.280,-14789.010,-15558.020,-48442.140,-7259.104,-16261.220,-14885.790,-52740.790,0.000
-14531.850,-14968.770,-15746.340,-48756.050,-7352.458,-16456.550,-15062.790,-53374.460,0.000
-14703.730,-15145.930,-15934.330,-49071.130,-7446.612,-16648.890,-15244.320,-54006.070,0.000
-14873.920,-15318.950,-16114.980,-49376.930,-7536.655,-16839.100,-15420.780,-54635.920,0.000
-15042.090,-15490.480,-16292.720,-49671.510,-7625.805,-17029.810,-15597.650,-55262.660,0.000
-15206.690,-15661.000,-16469.290,-49970.670,-7715.720,-17220.030,-15775.370,-55885.860,0.000
-15370.870,-15831.080,-16642.720,-50260.450,-7803.660,-17409.090,-15944.850,-56506.120,0.000
-15539.140,-16005.020,-16824.330,-50556.560,-7897.617,-17599.580,-16121.290,-57124.120,0.000
-15709.480,-16179.180,-17005.740,-50853.420,-7990.076,-17789.610,-16294.110,-57739.300,0.000
-15879.880,-16353.120,-17187.800,-51151.040,-8081.877,-17977.200,-16466.780,-58352.250,0.000
-16048.210,-16525.650,-17369.790,-51460.350,-8173.159,-18161.890,-16640.520,-58963.280,0.000
-16213.800,-16695.470,-17545.670,-51761.400,-8259.063,-18345.230,-16806.530,-59571.570,0.000
-16378.180,-16865.700,-17723.660,-52068.800,-8348.024,-18530.020,-16979.770,-60178.030,0.000
-16541.760,-17033.860,-17897.380,-52375.770,-8435.626,-18715.390,-17150.200,-60782.390,0.000
-16703.910,-17200.200,-18069.150,-52675.380,-8522.583,-18898.770,-17319.850,-61383.760,0.000
-16861.090,-17362.130,-18236.890,-52975.590,-8606.664,-19076.630,-17488.100,-61981.480,0.000
-17015.920,-17520.720,-18398.400,-53263.660,-8685.064,-19252.520,-17647.420,-62575.550,0.000
-17173.600,-17683.500,-18567.130,-53556.130,-8767.819,-19431.810,-17812.690,-63168.150,0.000
-17333.670,-17848.830,-18737.570,-53844.220,-8850.276,-19612.530,-17975.230,-63759.250,0.000
-17497.090,-18018.040,-18914.100,-54128.280,-8937.851,-19795.340,-18142.860,-64347.890,0.000
-17662.460,-18189.390,-19095.940,-54424.000,-9031.360,-19979.520,-18316.590,-64934.550,0.000
-17826.850,-18356.690,-19273.040,-54711.450,-9121.280,-20161.870,-18483.420,-65518.990,0.000
-17989.750,-18520.700,-19450.530,-54997.740,-9212.138,-20341.720,-18653.450,-66100.880,0.000
-18149.110,-18679.990,-19620.280,-55279.040,-9297.564,-20516.500,-18814.630,-66679.460,0.000
-18303.220,-18835.800,-19784.490,-55559.550,-9378.606,-20687.030,-18972.620,-67254.630,0.000
-18453.380,-18990.690,-19946.130,-55852.100,-9458.566,-20856.800,-19133.000,-67827.480,0.000
-18602.540,-19145.580,-20103.070,-56142.330,-9535.326,-21026.390,-19287.440,-68398.670,0.000
-18753.150,-19303.460,-20265.890,-56446.520,-9617.268,-21197.140,-19449.400,-68968.500,0.000
-18907.080,-19462.900,-20431.120,-56757.420,-9701.562,-21370.720,-19612.050,-69536.240,0.000
-19062.060,-19620.950,-20598.740,-57066.720,-9786.901,-21543.690,-19775.600,-70100.870,0.000
-19213.320,-19774.920,-20764.260,-57379.550,-9868.896,-21711.050,-19934.940,-70661.630,0.000
-19363.900,-19927.290,-20924.490,-57679.940,-9945.458,-21876.420,-20084.500,-71218.980,0.000
-19517.130,-20081.730,-21089.370,-57982.800,-10027.150,-22044.730,-20242.340,-71775.070,0.000
-19669.860,-20235.620,-21250.800,-58282.770,-10108.050,-22214.200,-20397.660,-72330.660,0.000
-19819.050,-20390.420,-21410.280,-58579.000,-10188.080,-22383.560,-20552.380,-72885.010,0.000
-19963.100,-20544.580,-21567.160,-58877.670,-10267.430,-22552.370,-20708.090,-73436.090,0.000
-20105.710,-20697.290,-21719.600,-59160.980,-10344.420,-22721.850,-20858.790,-73983.280,0.000
-20250.070,-20851.630,-21878.780,-59447.970,-10426.370,-22890.800,-21016.240,-74528.300,0.000
-20393.340,-21001.800,-22034.800,-59732.590,-10503.700,-23053.500,-21165.040,-75070.530,0.000
-20535.410,-21147.300,-22188.860,-60012.210,-10578.140,-23211.600,-21310.040,-75609.810,0.000
-20677.930,-21290.420,-22343.610,-60300.370,-10653.220,-23367.480,-21457.320,-76146.300,0.000
-20822.060,-21431.190,-22494.860,-60585.950,-10725.070,-23520.170,-21599.820,-76678.980,0.000
-20965.820,-21573.790,-22649.530,-60886.890,-10800.400,-23672.650,-21749.140,-77209.300,0.000
-21104.710,-21717.380,-22799.300,-61191.860,-10872.820,-23826.580,-21892.490,-77738.200,0.000
-21241.490,-21863.000,-22949.110,-61492.460,-10946.190,-23984.290,-22036.680,-78265.450,0.000
-21383.060,-22014.560,-23105.330,-61801.810,-11027.950,-24150.190,-22190.980,-78792.120,0.000
-21531.870,-22172.570,-23265.040,-62108.790,-11115.500,-24323.990,-22347.820,-79319.460,0.000
-21681.250,-22331.030,-23429.480,-62423.410,-11207.720,-24498.530,-22512.520,-79846.350,0.000
-21824.140,-22480.190,-23584.780,-62729.260,-11291.290,-24665.410,-22668.740,-80369.510,0.000
-21962.320,-22621.780,-23734.090,-63019.740,-11367.480,-24823.340,-22818.980,-80888.620,0.000
-22097.130,-22758.160,-23880.040,-63306.200,-11439.240,-24974.380,-22964.490,-81404.240,0.000
-22229.420,-22891.010,-24019.580,-63577.650,-11505.050,-25123.220,-23100.290,-81915.340,0.000
-22360.400,-23025.340,-24162.380,-63855.520,-11573.330,-25273.270,-23242.880,-82422.840,0.000
-22491.180,-23159.960,-24302.880,-64135.020,-11639.310,-25422.840,-23381.570,-82927.920,0.000
-22626.000,-23297.180,-24446.930,-64412.300,-11708.400,-25573.030,-23520.850,-83431.390,0.000
-22763.310,-23436.680,-24595.140,-64695.120,-11782.740,-25724.480,-23662.780,-83933.350,0.000
-22898.420,-23576.130,-24739.210,-64965.160,-11855.190,-25876.800,-23798.510,-84433.070,0.000
-23029.520,-23716.570,-24884.030,-65238.410,-11929.580,-26029.130,-23940.250,-84930.670,0.000
-23158.050,-23855.510,-25023.200,-65510.000,-12000.250,-26179.770,-24077.870,-85425.540,0.000
-23289.760,-23995.010,-25164.700,-65777.890,-12072.110,-26329.980,-24216.650,-85918.030,0.000
-23425.370,-24133.000,-25310.820,-66052.080,-12146.320,-26477.550,-24356.290,-86408.900,0.000
-23560.800,-24266.370,-25452.840,-66315.520,-12215.820,-26620.850,-24486.340,-86896.870,0.000
-23695.130,-24400.070,-25597.340,-66584.460,-12288.580,-26764.960,-24622.590,-87382.600,0.000
-23831.100,-24536.380,-25740.710,-66854.020,-12362.970,-26914.370,-24759.050,-87867.350,0.000
-23969.380,-24676.870,-25886.740,-67117.840,-12439.780,-27068.210,-24898.630,-88350.410,0.000
-24102.880,-24814.210,-26029.510,-67379.920,-12512.490,-27217.190,-25035.890,-88830.540,0.000
-24227.910,-24942.450,-26159.570,-67624.910,-12573.890,-27356.400,-25160.410,-89307.480,0.000
-24349.080,-25069.130,-26290.530,-67875.160,-12637.300,-27492.950,-25290.990,-89781.870,0.000
-24470.460,-25196.410,-26422.040,-68127.260,-12701.960,-27631.740,-25419.440,-90252.990,0.000
-24595.730,-25326.050,-26558.420,-68376.560,-12770.210,-27774.030,-25549.550,-90721.910,0.000
-24725.450,-25458.130,-26698.940,-68630.970,-12842.460,-27918.200,-25684.820,-91189.980,0.000
-24855.260,-25587.910,-26834.850,-68873.140,-12910.610,-28059.510,-25813.520,-91655.680,0.000
-24981.280,-25714.910,-26971.540,-69121.820,-12978.610,-28197.210,-25944.290,-92118.410,0.000
-25105.500,-25840.190,-27104.550,-69374.880,-13044.170,-28335.300,-26069.990,-92578.870,0.000
-25232.320,-25970.020,-27240.310,-69626.770,-13113.590,-28478.270,-26200.430,-93038.520,0.000
-25357.940,-26102.840,-27377.880,-69882.200,-13185.880,-28623.360,-26337.290,-93497.340,0.000
-25479.580,-26232.150,-27509.350,-70126.210,-13252.400,-28765.410,-26466.800,-93953.640,0.000
-25600.720,-26359.590,-27642.550,-70378.450,-13319.660,-28903.450,-26598.210,-94407.520,0.000
-25721.240,-26483.600,-27770.420,-70631.560,-13382.740,-29037.670,-26720.670,-94858.850,0.000
-25839.560,-26604.860,-27896.590,-70877.730,-13444.580,-29170.130,-26840.000,-95307.390,0.000
-25956.390,-26725.620,-28024.880,-71127.390,-13509.580,-29302.330,-26962.850,-95753.190,0.000
-26074.640,-26847.980,-28152.130,-71369.610,-13575.240,-29436.740,-27084.950,-96196.320,0.000
-26194.450,-26973.530,-28284.220,-71620.560,-13645.210,-29573.680,-27217.150,-96637.600,0.000
-26311.560,-27094.990,-28410.170,-71869.930,-13708.560,-29706.450,-27342.220,-97076.320,0.000
-26425.170,-27211.540,-28532.120,-72109.830,-13766.610,-29834.130,-27462.420,-97512.510,0.000
-26538.160,-27327.420,-28654.830,-72350.720,-13825.370,-29962.590,-27585.350,-97946.950,0.000
-26652.530,-27443.650,-28775.150,-72582.770,-13882.640,-30092.670,-27703.910,-98378.960,0.000
-26767.550,-27561.740,-28899.920,-72828.520,-13944.390,-30221.790,-27827.870,-98809.520,0.000
-26881.840,-27679.500,-29022.150,-73082.630,-14005.340,-30349.220,-27947.020,-99239.030,0.000
-26995.800,-27796.820,-29144.330,-73333.720,-14067.070,-30476.810,-28066.480,-99666.650,0.000
-27108.540,-27911.580,-29266.670,-73587.740,-14129.990,-30604.290,-28188.580,-100092.100,0.000
-27220.850,-28025.590,-29386.180,-73833.240,-14190.580,-30732.120,-28305.410,-100515.200,0.000
-27335.080,-28145.240,-29512.700,-74087.620,-14255.970,-30861.550,-28428.860,-100936.300,0.000
-27450.820,-28265.570,-29637.100,-74341.790,-14318.920,-30989.380,-28546.250,-101355.200,0.000
-27565.010,-28382.670,-29758.020,-74585.370,-14379.140,-31113.960,-28660.180,-101771.600,0.000
-27672.650,-28494.300,-29874.540,-74824.840,-14437.080,-31235.030,-28773.560,-102185.200,0.000
-27777.790,-28603.320,-29986.120,-75052.770,-14492.160,-31356.730,-28882.710,-102596.500,0.000
-27886.550,-28715.590,-30104.280,-75290.830,-14553.560,-31482.350,-29002.430,-103006.300,0.000
-27995.810,-28826.070,-30220.490,-75528.380,-14612.940,-31607.350,-29119.100,-103413.600,0.000
-28103.800,-28935.650,-30336.890,-75753.990,-14670.540,-31729.710,-29234.370,-103817.900,0.000
-28211.000,-29046.090,-30454.200,-75978.620,-14727.460,-31848.890,-29348.710,-104220.400,0.000
-28318.000,-29154.740,-30566.780,-76195.560,-14779.780,-31965.930,-29453.450,-104621.400,0.000
-28425.280,-29263.380,-30682.780,-76421.490,-14836.110,-32084.110,-29564.350,-105021.100,0.000
-28533.700,-29373.690,-30797.140,-76647.120,-14893.960,-32206.030,-29675.180,-105418.300,0.000
-28642.920,-29486.570,-30912.030,-76864.390,-14954.050,-32330.360,-29787.820,-105812.100,0.000
-28749.610,-29597.580,-31026.630,-77081.430,-15013.290,-32450.030,-29899.020,-106203.300,0.000
-28857.350,-29707.810,-31140.140,-77289.870,-15069.440,-32567.320,-30003.990,-106593.400,0.000
-28966.600,-29819.460,-31259.990,-77506.340,-15130.070,-32686.480,-30117.560,-106983.500,0.000
-29072.160,-29926.990,-31374.260,-77721.960,-15186.860,-32804.330,-30225.700,-107371.600,0.000
-29177.820,-30035.370,-31488.090,-77933.020,-15244.310,-32922.350,-30333.530,-107757.200,0.000
-29284.110,-30145.150,-31603.390,-78146.450,-15304.090,-33039.970,-30444.380,-108140.600,0.000
-29387.290,-30250.820,-31712.260,-78347.550,-15358.760,-33154.710,-30548.460,-108520.700,0.000
-29487.950,-30353.990,-31822.180,-78555.090,-15414.350,-33266.640,-30656.870,-108898.300,0.000
-29588.980,-30456.580,-31929.570,-78765.350,-15468.410,-33377.810,-30761.180,-109274.700,0.000
-29693.510,-30563.720,-32040.540,-78973.880,-15526.610,-33493.730,-30869.670,-109650.700,0.000
-29797.780,-30671.960,-32152.830,-79186.660,-15586.660,-33611.480,-30981.320,-110025.600,0.000
-29898.810,-30775.540,-32258.170,-79389.440,-15639.050,-33724.930,-31082.390,-110397.000,0.000
-29997.810,-30876.960,-32365.870,-79598.340,-15691.810,-33834.580,-31186.780,-110765.500,0.000
-30093.940,-30975.200,-32469.700,-79804.550,-15741.450,-33941.730,-31286.400,-111132.200,0.000
-30189.670,-31073.980,-32573.510,-80002.730,-15791.650,-34050.800,-31386.710,-111497.300,0.000
-30286.890,-31175.670,-32679.330,-80204.280,-15845.680,-34162.860,-31491.350,-111860.400,0.000
-30385.400,-31278.650,-32781.520,-80395.680,-15899.180,-34275.270,-31592.330,-112220.200,0.000
-30485.040,-31383.200,-32887.750,-80590.840,-15957.620,-34388.820,-31701.060,-112578.400,0.000
-30581.310,-31482.660,-32989.080,-80784.340,-16011.200,-34499.220,-31802.330,-112935.300,0.000
-30673.270,-31577.280,-33087.600,-80971.200,-16060.350,-34603.880,-31899.550,-113289.500,0.000
-30764.700,-31671.180,-33187.840,-81160.270,-16110.420,-34706.750,-32000.360,-113640.600,0.000
-30857.330,-31764.150,-33285.970,-81340.270,-16158.050,-34809.540,-32095.680,-113989.800,0.000
-30950.740,-31858.480,-33388.470,-81525.970,-16209.280,-34912.880,-32195.110,-114339.000,0.000
-31042.640,-31951.730,-33487.000,-81708.670,-16257.770,-35015.940,-32288.670,-114686.800,0.000
-31132.590,-32045.230,-33583.820,-81881.330,-16304.390,-35118.820,-32381.570,-115031.000,0.000
-31220.870,-32140.740,-33681.520,-82053.220,-16352.570,-35222.430,-32478.630,-115372.800,0.000
-31306.930,-32234.390,-33774.940,-82213.050,-16398.180,-35325.440,-32570.320,-115713.200,0.000
-31393.460,-32328.050,-33872.720,-82375.560,-16448.060,-35428.160,-32667.070,-116052.100,0.000
-31483.720,-32422.780,-33971.280,-82538.110,-16498.860,-35530.960,-32760.100,-116389.500,0.000
-31574.290,-32516.340,-34070.460,-82696.970,-16548.960,-35632.090,-32851.710,-116725.500,0.000
-31659.340,-32605.030,-34166.880,-82855.840,-16596.510,-35730.230,-32943.200,-117058.900,0.000
-31742.710,-32692.680,-34259.110,-83004.300,-16641.950,-35829.570,-33031.100,-117390.100,0.000
-31825.000,-32781.050,-34353.470,-83156.250,-16690.230,-35928.540,-33125.020,-117719.500,0.000
-31900.860,-32862.030,-34437.760,-83301.100,-16729.990,-36019.890,-33208.980,-118045.200,0.000
-31976.310,-32943.260,-34521.680,-83444.880,-16770.060,-36110.770,-33294.410,-118368.300,0.000
-32054.930,-33030.060,-34612.550,-83604.650,-16817.610,-36207.060,-33389.050,-118691.400,0.000
-32135.150,-33117.970,-34703.090,-83759.840,-16864.660,-36305.570,-33478.700,-119014.200,0.000
-32217.290,-33207.800,-34797.550,-83911.070,-16913.780,-36404.690,-33570.490,-119335.400,0.000
-32298.370,-33295.290,-34886.350,-84048.520,-16957.680,-36501.550,-33655.410,-119652.600,0.000
-32378.650,-33380.410,-34973.350,-84179.060,-17000.180,-36596.860,-33741.690,-119966.800,0.000
-32460.300,-33464.610,-35062.200,-84317.420,-17044.630,-36691.020,-33831.110,-120279.100,0.000
-32545.670,-33548.590,-35149.390,-84447.800,-17086.440,-36782.550,-33911.590,-120589.600,0.000
-32637.890,-33638.310,-35244.550,-84580.660,-17133.950,-36875.970,-33998.590,-120899.000,0.000
-32734.120,-33731.210,-35340.880,-84708.780,-17182.780,-36973.580,-34086.360,-121206.000,0.000
-32829.920,-33824.470,-35439.390,-84834.480,-17234.530,-37073.900,-34177.940,-121510.900,0.000
-32923.130,-33917.280,-35538.700,-84969.810,-17289.660,-37174.550,-34273.860,-121815.000,0.000
-33012.540,-34006.660,-35630.480,-85096.100,-17338.960,-37271.710,-34361.270,-122117.800,0.000
-33097.190,-34092.150,-35721.370,-85220.270,-17385.920,-37364.700,-34449.430,-122418.800,0.000
-33176.000,-34172.050,-35805.270,-85335.500,-17426.560,-37452.910,-34529.500,-122717.400,0.000
-33254.550,-34253.110,-35889.220,-85448.580,-17466.880,-37539.710,-34609.020,-123014.200,0.000
-33339.320,-34340.360,-35979.430,-85576.340,-17512.440,-37631.060,-34694.830,-123310.100,0.000
-33426.200,-34426.280,-36066.170,-85697.460,-17554.710,-37723.190,-34773.770,-123603.000,0.000
-33506.090,-34504.890,-36148.840,-85812.880,-17593.040,-37808.050,-34850.620,-123892.000,0.000
-33578.990,-34576.750,-36223.440,-85919.340,-17625.690,-37887.000,-34921.220,-124179.800,0.000
-33653.300,-34650.820,-36301.410,-86028.940,-17663.340,-37969.650,-34998.270,-124469.000,0.000
-33730.660,-34729.450,-36385.150,-86155.320,-17707.640,-38058.070,-35082.510,-124757.600,0.000
-33807.910,-34809.510,-36466.190,-86276.550,-17749.220,-38147.130,-35161.430,-125042.400,0.000
-33885.330,-34893.810,-36552.020,-86399.780,-17794.600,-38236.150,-35248.050,-125324.600,0.000
-33964.290,-34978.770,-36636.700,-86520.420,-17839.980,-38324.950,-35331.630,-125604.900,0.000
-34045.060,-35061.000,-36721.210,-86640.380,-17884.380,-38411.480,-35411.820,-125883.200,0.000
-34125.430,-35140.180,-36805.410,-86770.410,-17927.480,-38495.120,-35491.520,-126160.000,0.000
-34204.110,-35217.160,-36884.800,-86893.440,-17966.890,-38578.930,-35566.050,-126435.400,0.000
-34281.950,-35295.350,-36967.510,-87017.900,-18010.130,-38664.970,-35647.070,-126709.900,0.000
-34359.510,-35372.870,-37047.900,-87138.710,-18051.130,-38749.810,-35722.340,-126982.400,0.000
-34436.720,-35449.100,-37129.140,-87260.730,-18091.340,-38831.710,-35796.390,-127252.400,0.000
-34510.720,-35522.340,-37209.680,-87395.230,-18131.800,-38911.170,-35873.340,-127521.000,0.000
-34580.940,-35592.590,-37282.820,-87519.860,-18167.850,-38990.240,-35944.570,-127787.000,0.000
-34648.990,-35662.500,-37356.130,-87641.130,-18205.300,-39069.170,-36019.540,-128050.900,0.000
-34716.470,-35729.990,-37424.400,-87756.510,-18239.170,-39145.350,-36087.340,-128313.400,0.000
-34786.910,-35800.030,-37495.310,-87872.370,-18274.660,-39221.680,-36156.160,-128574.700,0.000
-34858.840,-35873.300,-37571.900,-88001.570,-18314.000,-39300.250,-36231.800,-128834.400,0.000
-34930.180,-35945.770,-37646.630,-88124.130,-18350.530,-39379.390,-36303.520,-129091.800,0.000
-35001.030,-36018.160,-37724.340,-88244.720,-18389.020,-39456.380,-36378.070,-129348.000,0.000
-35071.250,-36089.020,-37799.060,-88358.130,-18425.430,-39531.240,-36445.670,-129602.900,0.000
-35141.740,-36160.420,-37875.580,-88470.590,-18463.330,-39608.440,-36514.890,-129855.700,0.000
-35209.960,-36230.430,-37951.730,-88592.950,-18501.680,-39685.230,-36587.070,-130105.800,0.000
-35276.250,-36297.330,-38020.910,-88705.100,-18535.020,-39758.130,-36650.630,-130353.900,0.000
-35343.650,-36366.780,-38093.970,-88816.870,-18572.090,-39831.590,-36719.740,-130601.700,0.000
-35411.450,-36439.060,-38165.660,-88924.700,-18608.490,-39908.130,-36788.130,-130847.900,0.000
-35478.410,-36511.330,-38237.610,-89030.810,-18645.030,-39984.580,-36858.320,-131091.600,0.000
-35542.680,-36578.270,-38309.400,-89146.710,-18681.750,-40056.530,-36928.550,-131333.800,0.000
-35605.800,-36640.370,-38376.280,-89254.800,-18713.690,-40124.890,-36988.920,-131575.100,0.000
-35670.840,-36705.600,-38447.450,-89363.300,-18748.530,-40194.280,-37054.950,-131814.900,0.000
-35737.760,-36774.410,-38517.850,-89466.450,-18784.230,-40267.690,-37122.830,-132051.500,0.000
-35806.380,-36844.800,-38590.520,-89567.460,-18823.520,-40344.350,-37195.970,-132285.900,0.000
-35873.170,-36912.850,-38663.190,-89679.470,-18863.060,-40417.800,-37269.070,-132519.400,0.000
-35935.860,-36976.840,-38727.600,-89781.940,-18895.360,-40487.210,-37330.880,-132750.900,0.000
-35994.910,-37038.390,-38791.980,-89882.200,-18928.890,-40557.700,-37397.840,-132980.700,0.000
-36051.060,-37095.550,-38852.680,-89978.620,-18960.770,-40628.120,-37462.790,-133209.500,0.000
-36107.780,-37153.630,-38915.290,-90074.920,-18993.850,-40696.380,-37528.360,-133438.200,0.000
-36165.180,-37214.910,-38980.290,-90181.030,-19028.460,-40762.380,-37594.960,-133665.700,0.000
-36223.110,-37276.520,-39041.170,-90275.230,-19058.600,-40827.630,-37653.210,-133889.500,0.000
-36282.960,-37340.480,-39107.140,-90367.480,-19091.720,-40894.640,-37716.750,-134110.000,0.000
-36345.010,-37406.460,-39173.840,-90460.520,-19125.640,-40964.730,-37779.160,-134329.600,0.000
-36410.210,-37474.910,-39243.760,-90556.970,-19163.240,-41038.660,-37845.160,-134549.600,0.000
-36474.000,-37540.340,-39313.110,-90661.850,-19201.140,-41110.140,-37912.390,-134768.600,0.000
-36533.480,-37600.090,-39374.090,-90755.160,-19232.400,-41177.040,-37970.340,-134984.500,0.000
-36591.670,-37660.390,-39437.220,-90849.180,-19266.940,-41244.840,-38034.700,-135198.500,0.000
-36647.910,-37718.220,-39496.170,-90938.450,-19298.340,-41310.110,-38093.770,-135410.900,0.000
-36701.450,-37773.950,-39552.990,-91019.690,-19325.720,-41370.170,-38147.930,-135621.300,0.000
-36754.460,-37830.610,-39612.290,-91108.450,-19354.210,-41429.590,-38204.280,-135830.800,0.000
-36810.590,-37888.730,-39671.140,-91192.670,-19382.590,-41492.200,-38257.850,-136039.400,0.000
-36870.700,-37950.610,-39735.350,-91279.980,-19415.400,-41557.230,-38317.780,-136245.600,0.000
-36931.580,-38011.700,-39796.970,-91364.520,-19446.030,-41620.890,-38373.080,-136448.800,0.000
-36990.110,-38069.790,-39857.820,-91443.980,-19476.730,-41683.290,-38429.020,-136650.700,0.000
-37043.940,-38124.010,-39917.500,-91528.460,-19507.480,-41743.920,-38487.700,-136852.000,0.000
-37097.590,-38176.490,-39973.410,-91606.730,-19534.900,-41803.800,-38541.040,-137052.000,0.000
-37153.880,-38232.070,-40035.250,-91691.060,-19566.920,-41865.370,-38601.090,-137251.300,0.000
-37207.070,-38285.320,-40092.110,-91771.940,-19594.730,-41924.740,-38654.590,-137449.300,0.000
-37257.910,-38337.890,-40146.140,-91844.010,-19620.680,-41982.790,-38706.750,-137644.800,0.000
-37311.240,-38394.540,-40203.410,-91922.150,-19651.220,-42042.830,-38765.460,-137838.800,0.000
-37368.100,-38453.050,-40260.220,-91996.050,-19682.390,-42103.640,-38820.830,-138031.700,0.000
-37423.300,-38509.390,-40320.060,-92071.300,-19715.680,-42162.050,-38878.620,-138221.900,0.000
-37472.560,-38558.690,-40373.650,-92139.040,-19742.630,-42215.830,-38926.750,-138408.100,0.000
-37521.370,-38606.930,-40425.950,-92200.540,-19767.800,-42269.140,-38972.580,-138592.500,0.000
-37568.950,-38655.140,-40476.420,-92267.910,-19792.170,-42321.790,-39020.530,-138775.500,0.000
-37613.200,-38702.050,-40520.420,-92331.520,-19812.310,-42374.220,-39064.540,-138957.800,0.000
-37660.310,-38755.160,-40573.330,-92407.640,-19841.940,-42433.140,-39122.060,-139141.900,0.000
-37711.080,-38810.550,-40629.500,-92487.410,-19875.120,-42496.210,-39180.910,-139326.600,0.000
-37764.520,-38865.890,-40688.260,-92563.460,-19908.750,-42559.350,-39239.500,-139510.300,0.000
-37819.590,-38923.500,-40749.910,-92644.080,-19943.200,-42621.740,-39299.940,-139692.200,0.000
-37873.180,-38980.020,-40805.770,-92713.750,-19972.190,-42680.940,-39351.720,-139870.100,0.000
-37923.040,-39031.700,-40858.980,-92782.660,-19999.750,-42734.390,-39403.230,-140044.400,0.000
-37968.420,-39075.150,-40903.240,-92845.320,-20020.090,-42781.580,-39445.690,-140216.300,0.000
-38012.820,-39116.960,-40946.950,-92901.950,-20039.140,-42828.590,-39489.100,-140387.400,0.000
-38056.630,-39159.660,-40994.360,-92966.620,-20060.850,-42875.820,-39536.870,-140557.300,0.000
-38097.820,-39198.820,-41037.330,-93025.540,-20078.500,-42919.980,-39575.200,-140724.200,0.000
-38138.840,-39239.020,-41083.660,-93088.580,-20100.410,-42966.070,-39618.290,-140890.500,0.000
-38181.950,-39283.450,-41130.500,-93152.360,-20124.550,-43016.340,-39662.390,-141057.300,0.000
-38225.450,-39331.550,-41179.150,-93213.690,-20150.820,-43068.320,-39710.600,-141222.500,0.000
-38266.400,-39379.400,-41227.520,-93280.780,-20177.930,-43119.520,-39761.140,-141385.200,0.000
-38306.920,-39424.930,-41270.500,-93342.450,-20200.620,-43169.170,-39803.350,-141546.500,0.000
-38347.160,-39468.030,-41314.630,-93406.350,-20223.640,-43216.660,-39849.830,-141706.800,0.000
-38383.220,-39504.290,-41351.880,-93461.880,-20240.530,-43259.800,-39891.430,-141864.300,0.000
-38418.400,-39539.780,-41388.580,-93511.610,-20256.520,-43301.570,-39932.070,-142019.900,0.000
-38457.110,-39580.030,-41430.700,-93573.820,-20277.160,-43345.090,-39975.510,-142175.500,0.000
-38500.210,-39622.830,-41473.870,-93636.240,-20298.300,-43390.990,-40014.450,-142330.900,0.000
-38545.200,-39667.500,-41522.910,-93702.960,-20324.250,-43439.570,-40061.060,-142485.400,0.000
-38589.470,-39712.090,-41569.450,-93766.380,-20348.710,-43488.580,-40105.100,-142637.700,0.000
-38634.810,-39759.360,-41616.740,-93827.460,-20374.680,-43537.890,-40149.740,-142788.600,0.000
-38677.580,-39804.760,-41663.830,-93892.670,-20401.600,-43585.630,-40195.970,-142937.400,0.000
-38714.940,-39843.700,-41703.730,-93945.230,-20422.160,-43629.900,-40234.090,-143083.000,0.000
-38749.690,-39881.630,-41744.630,-93997.700,-20442.900,-43671.570,-40275.830,-143227.800,0.000
-38783.350,-39916.280,-41780.800,-94047.280,-20458.840,-43709.440,-40310.410,-143372.000,0.000
-38819.970,-39951.520,-41819.410,-94094.380,-20475.780,-43747.930,-40343.800,-143515.200,0.000
-38860.200,-39991.880,-41864.190,-94148.950,-20499.030,-43791.000,-40383.590,-143656.400,0.000
-38902.390,-40033.800,-41907.320,-94197.970,-20522.690,-43836.860,-40422.150,-143796.000,0.000
-38947.630,-40078.640,-41954.900,-94253.120,-20551.820,-43884.500,-40469.220,-143936.300,0.000
-38991.580,-40121.750,-41997.230,-94304.890,-20577.070,-43928.760,-40509.990,-144074.900,0.000
-39027.780,-40157.670,-42032.730,-94347.690,-20594.770,-43966.290,-40544.160,-144210.100,0.000
-39055.740,-40185.960,-42064.440,-94394.600,-20608.030,-43999.750,-40578.440,-144343.400,0.000
-39081.990,-40211.880,-42092.880,-94435.820,-20618.120,-44033.430,-40608.550,-144476.000,0.000
-39112.360,-40244.270,-42128.960,-94481.410,-20635.300,-44070.890,-40646.200,-144607.600,0.000
-39147.500,-40282.280,-42167.620,-94527.630,-20655.940,-44112.280,-40683.230,-144737.300,0.000
-39186.710,-40325.180,-42211.270,-94576.420,-20681.150,-44157.150,-40724.390,-144865.900,0.000
-39225.840,-40369.000,-42256.280,-94634.020,-20707.580,-44200.770,-40768.050,-144993.800,0.000
-39261.180,-40406.950,-42291.890,-94679.880,-20725.160,-44238.630,-40800.020,-145120.500,0.000
-39294.800,-40442.020,-42327.110,-94725.150,-20741.580,-44274.060,-40832.770,-145246.700,0.000
-39328.410,-40475.150,-42359.570,-94767.780,-20755.980,-44309.000,-40861.220,-145370.800,0.000
-39359.480,-40505.520,-42390.380,-94804.620,-20769.430,-44341.680,-40890.120,-145491.900,0.000
-39388.660,-40535.050,-42422.270,-94846.880,-20785.040,-44374.360,-40924.750,-145612.100,0.000
-39423.350,-40568.970,-42457.120,-94886.110,-20803.790,-44412.700,-40959.980,-145732.600,0.000
-39461.110,-40607.340,-42500.090,-94931.170,-20829.110,-44453.680,-41002.560,-145851.800,0.000
-39492.400,-40640.500,-42536.020,-94970.570,-20848.550,-44488.960,-41035.630,-145967.100,0.000
-39519.770,-40669.750,-42567.810,-95003.700,-20864.940,-44521.380,-41064.900,-146080.300,0.000
-39548.330,-40698.450,-42601.260,-95044.540,-20883.500,-44556.430,-41098.750,-146193.900,0.000
-39576.710,-40724.300,-42629.450,-95076.650,-20896.430,-44590.660,-41126.240,-146306.500,0.000
-39604.340,-40749.900,-42658.130,-95108.520,-20907.690,-44620.380,-41155.640,-146416.700,0.000
-39635.790,-40778.770,-42686.720,-95140.830,-20918.440,-44649.580,-41182.190,-146525.300,0.000
-39674.550,-40815.990,-42723.120,-95177.520,-20936.180,-44685.000,-41214.360,-146634.800,0.000
-39712.700,-40854.600,-42763.180,-95223.550,-20958.420,-44722.980,-41251.220,-146744.700,0.000
-39743.070,-40884.410,-42794.390,-95256.710,-20975.140,-44756.910,-41279.040,-146851.600,0.000
-39767.340,-40910.360,-42824.990,-95289.950,-20993.830,-44788.870,-41310.710,-146956.400,0.000
-39789.810,-40937.770,-42853.520,-95324.450,-21012.100,-44822.200,-41340.280,-147060.100,0.000
-39814.710,-40969.320,-42884.720,-95356.800,-21030.530,-44856.150,-41370.840,-147161.900,0.000
-39840.000,-40999.880,-42915.760,-95391.770,-21045.460,-44885.190,-41399.840,-147261.300,0.000
-39866.870,-41028.160,-42941.250,-95416.710,-21053.780,-44911.490,-41419.360,-147360.100,0.000
-39899.390,-41060.920,-42973.160,-95447.900,-21068.240,-44941.990,-41447.540,-147460.300,0.000
-39935.200,-41094.440,-43004.750,-95481.730,-21083.200,-44974.070,-41475.090,-147559.700,0.000
-39972.380,-41126.240,-43037.200,-95512.520,-21098.640,-45005.210,-41504.030,-147657.100,0.000
-40004.770,-41153.000,-43069.680,-95545.220,-21116.770,-45033.780,-41536.630,-147752.500,0.000
-40026.390,-41173.820,-43094.960,-95565.590,-21133.190,-45060.930,-41563.030,-147845.000,0.000
-40038.280,-41192.980,-43119.580,-95587.320,-21150.680,-45088.440,-41592.280,-147935.800,0.000
-40045.350,-41209.460,-43137.150,-95606.160,-21160.410,-45112.320,-41611.500,-148025.400,0.000
-40055.190,-41227.590,-43154.230,-95619.470,-21167.230,-45134.300,-41627.650,-148114.300,0.000
-40069.320,-41246.460,-43174.650,-95637.460,-21175.540,-45156.400,-41648.690,-148201.800,0.000
-40088.630,-41265.600,-43194.120,-95649.730,-21182.140,-45179.050,-41666.700,-148287.700,0.000
-40114.320,-41289.760,-43220.250,-95670.020,-21194.620,-45203.090,-41691.930,-148373.200,0.000
-40141.950,-41313.770,-43244.220,-95691.410,-21206.740,-45227.000,-41713.830,-148458.500,0.000
-40168.230,-41336.700,-43267.160,-95709.410,-21219.640,-45252.910,-41736.950,-148543.600,0.000
-40189.920,-41357.710,-43289.010,-95732.680,-21233.250,-45279.340,-41763.250,-148628.100,0.000
-40206.880,-41375.610,-43304.730,-95745.040,-21241.380,-45302.930,-41781.890,-148709.500,0.000
-40221.800,-41393.350,-43324.390,-95757.770,-21250.990,-45323.520,-41803.840,-148787.700,0.000
-40236.230,-41408.250,-43343.170,-95770.280,-21258.620,-45341.650,-41820.550,-148864.400,0.000
-40253.780,-41425.410,-43364.460,-95781.400,-21268.690,-45362.580,-41839.260,-148940.400,0.000
-40273.420,-41447.020,-43387.830,-95799.150,-21281.540,-45386.350,-41863.020,-149014.900,0.000
-40294.860,-41469.050,-43407.270,-95809.050,-21290.570,-45409.610,-41880.380,-149089.100,0.000
-40320.750,-41495.330,-43433.270,-95823.580,-21304.820,-45435.060,-41905.070,-149165.200,0.000
-40347.060,-41523.770,-43457.900,-95837.330,-21318.750,-45461.360,-41928.110,-149241.300,0.000
-40370.030,-41550.360,-43479.940,-95844.530,-21331.480,-45485.410,-41950.200,-149314.200,0.000
-40389.750,-41572.280,-43501.040,-95855.740,-21344.620,-45505.990,-41973.080,-149383.400,0.000
-40410.460,-41590.990,-43519.250,-95858.700,-21354.250,-45524.750,-41988.680,-149449.700,0.000
-40432.750,-41610.000,-43542.550,-95863.050,-21366.060,-45545.200,-42010.240,-149515.000,0.000
-40449.150,-41623.510,-43559.780,-95863.130,-21371.690,-45563.930,-42025.390,-149580.000,0.000
-40459.440,-41631.880,-43572.120,-95860.240,-21372.780,-45577.830,-42034.370,-149644.300,0.000
-40469.390,-41640.320,-43585.380,-95869.020,-21376.060,-45590.110,-42044.750,-149708.000,0.000
-40481.660,-41651.870,-43595.830,-95871.380,-21378.540,-45604.200,-42052.090,-149769.800,0.000
-40496.890,-41668.630,-43612.090,-95873.930,-21386.790,-45622.080,-42069.650,-149830.800,0.000
-40513.970,-41687.760,-43630.650,-95876.440,-21398.130,-45644.020,-42089.590,-149891.700,0.000
-40530.390,-41707.260,-43650.530,-95879.560,-21411.060,-45665.100,-42109.910,-149952.500,0.000
-40546.770,-41726.360,-43670.380,-95891.500,-21423.440,-45681.250,-42128.760,-150013.200,0.000
-40567.310,-41748.000,-43688.470,-95894.940,-21433.000,-45698.330,-42141.500,-150072.500,0.000
-40589.270,-41772.290,-43711.830,-95897.910,-21447.420,-45719.980,-42163.520,-150129.300,0.000
-40607.270,-41792.480,-43731.100,-95897.820,-21460.480,-45742.410,-42184.960,-150183.500,0.000
-40623.710,-41811.400,-43749.610,-95896.300,-21473.790,-45766.100,-42207.630,-150236.400,0.000
-40638.490,-41828.780,-43768.420,-95902.290,-21486.750,-45788.640,-42230.550,-150288.500,0.000
-40651.950,-41844.170,-43783.040,-95901.570,-21494.780,-45807.980,-42244.210,-150339.700,0.000
-40665.150,-41860.710,-43801.610,-95906.850,-21506.150,-45826.180,-42263.800,-150390.800,0.000
-40671.240,-41867.410,-43810.340,-95906.090,-21509.720,-45836.580,-42275.980,-150438.800,0.000
-40674.010,-41868.000,-43813.410,-95894.990,-21508.280,-45841.700,-42284.170,-150483.600,0.000
-40684.260,-41876.810,-43824.970,-95894.560,-21514.230,-45852.580,-42299.880,-150529.800,0.000
-40698.740,-41890.930,-43838.190,-95889.800,-21520.220,-45864.660,-42309.400,-150575.800,0.000
-40711.830,-41905.620,-43853.570,-95886.280,-21526.270,-45872.890,-42318.280,-150619.100,0.000
-40728.120,-41920.930,-43869.270,-95885.550,-21532.790,-45883.870,-42325.330,-150662.200,0.000
-40750.470,-41938.240,-43889.490,-95885.040,-21544.260,-45900.370,-42338.280,-150705.900,0.000
-40771.100,-41953.960,-43908.930,-95887.750,-21556.330,-45916.770,-42355.900,-150747.200,0.000
-40783.150,-41964.730,-43917.760,-95881.230,-21559.880,-45930.170,-42365.790,-150785.500,0.000
-40787.840,-41972.080,-43924.200,-95879.860,-21562.630,-45940.420,-42377.970,-150824.400,0.000
-40790.010,-41975.120,-43925.800,-95876.830,-21563.060,-45947.360,-42383.750,-150863.700,0.000
-40794.620,-41979.000,-43929.960,-95868.860,-21565.960,-45955.930,-42390.790,-150901.600,0.000
-40802.970,-41987.230,-43940.460,-95869.590,-21573.900,-45967.430,-42405.020,-150938.400,0.000
-40813.960,-41996.230,-43949.300,-95865.890,-21578.710,-45976.490,-42412.570,-150973.400,0.000
-40825.620,-42005.500,-43960.730,-95865.210,-21583.810,-45981.890,-42420.380,-151006.000,0.000
-40835.170,-42014.670,-43968.130,-95860.550,-21585.840,-45987.090,-42422.650,-151036.500,0.000
-40843.480,-42026.000,-43975.880,-95850.840,-21589.400,-45995.950,-42427.930,-151066.400,0.000
-40852.300,-42038.390,-43987.980,-95851.060,-21597.520,-46008.300,-42440.180,-151097.500,0.000
-40861.930,-42047.890,-43997.420,-95848.230,-21604.060,-46021.440,-42448.160,-151128.300,0.000
-40871.230,-42055.210,-44007.700,-95847.340,-21612.630,-46033.540,-42460.390,-151157.600,0.000
-40878.680,-42060.150,-44013.280,-95839.620,-21617.080,-46043.010,-42466.840,-151184.800,0.000
-40886.000,-42066.990,-44020.250,-95824.630,-21620.450,-46050.500,-42472.520,-151209.900,0.000
-40894.280,-42075.500,-44030.890,-95817.190,-21626.080,-46055.480,-42481.120,-151234.100,0.000
-40903.450,-42080.770,-44038.000,-95804.780,-21629.390,-46059.030,-42483.740,-151258.100,0.000
-40911.020,-42085.170,-44046.310,-95794.100,-21634.550,-46063.680,-42491.390,-151280.800,0.000
-40915.070,-42090.340,-44049.540,-95779.910,-21635.840,-46067.920,-42494.120,-151301.000,0.000
-40918.670,-42097.580,-44052.450,-95764.170,-21637.340,-46072.850,-42497.000,-151321.600,0.000
-40921.560,-42103.680,-44056.920,-95755.190,-21641.940,-46079.410,-42504.820,-151344.000,0.000
-40924.330,-42107.380,-44058.340,-95735.880,-21645.430,-46087.110,-42509.340,-151364.600,0.000
-40927.800,-42111.630,-44063.390,-95716.510,-21651.500,-46094.570,-42519.240,-151381.500,0.000
-40930.610,-42113.090,-44064.890,-95692.450,-21651.780,-46098.220,-42521.540,-151395.500,0.000
-40935.000,-42115.060,-44068.170,-95665.840,-21651.010,-46099.890,-42522.430,-151408.900,0.000
-40939.120,-42119.320,-44074.630,-95648.140,-21653.960,-46102.170,-42528.720,-151422.400,0.000
-40942.250,-42123.810,-44078.040,-95622.990,-21656.400,-46107.090,-42532.060,-151435.500,0.000
-40946.580,-42130.760,-44086.210,-95601.400,-21663.280,-46114.250,-42541.460,-151449.500,0.000
-40950.780,-42137.760,-44091.680,-95579.090,-21667.150,-46119.610,-42544.710,-151463.800,0.000
-40954.530,-42144.900,-44096.330,-95552.740,-21670.610,-46125.240,-42546.930,-151476.800,0.000
-40955.830,-42150.010,-44100.570,-95529.660,-21674.900,-46131.290,-42551.660,-151487.100,0.000
-40954.730,-42149.840,-44098.570,-95496.230,-21673.630,-46134.210,-42548.510,-151495.100,0.000
-40954.210,-42147.990,-44099.280,-95466.490,-21674.600,-46134.330,-42550.550,-151502.700,0.000
-40954.940,-42145.960,-44098.390,-95435.380,-21674.150,-46132.750,-42549.410,-151509.300,0.000
-40956.780,-42146.410,-44099.180,-95399.400,-21673.610,-46130.880,-42548.060,-151514.200,0.000
-40958.110,-42149.140,-44102.680,-95371.850,-21675.330,-46130.310,-42551.080,-151518.200,0.000
-40959.790,-42151.380,-44103.270,-95340.800,-21674.940,-46131.710,-42549.400,-151521.300,0.000
-40962.950,-42154.010,-44108.530,-95314.020,-21678.200,-46134.790,-42553.060,-151523.800,0.000
-40966.020,-42155.920,-44112.120,-95284.980,-21680.620,-46139.100,-42554.060,-151525.900,0.000
-40968.540,-42156.900,-44114.140,-95251.210,-21682.090,-46141.950,-42554.900,-151527.800,0.000
-40967.600,-42155.050,-44112.550,-95219.840,-21680.830,-46139.270,-42555.640,-151527.600,0.000
-40962.790,-42151.420,-44103.540,-95176.590,-21674.190,-46134.300,-42549.390,-151524.600,0.000
-40959.520,-42151.260,-44100.980,-95138.980,-21673.920,-46132.570,-42552.000,-151521.700,0.000
-40960.360,-42151.240,-44100.590,-95104.770,-21674.750,-46131.680,-42551.680,-151518.900,0.000
-40962.770,-42149.840,-44101.580,-95067.100,-21675.330,-46129.560,-42548.480,-151515.100,0.000
-40962.880,-42147.570,-44103.800,-95035.430,-21677.730,-46127.300,-42548.250,-151510.600,0.000
-40963.330,-42147.230,-44103.930,-94998.300,-21679.310,-46127.740,-42545.500,-151505.700,0.000
-40966.790,-42153.020,-44110.480,-94965.710,-21686.950,-46132.790,-42552.200,-151500.600,0.000
-40969.960,-42159.070,-44114.240,-94930.660,-21693.060,-46137.970,-42555.450,-151494.300,0.000
-40971.330,-42161.980,-44114.990,-94891.020,-21696.360,-46140.300,-42555.390,-151486.200,0.000
-40967.430,-42158.020,-44112.100,-94855.090,-21695.620,-46136.820,-42553.040,-151475.800,0.000
-40958.120,-42147.860,-44100.450,-94804.680,-21686.270,-46126.800,-42539.390,-151462.700,0.000
-40949.340,-42139.590,-44092.090,-94753.270,-21679.650,-46115.720,-42531.850,-151448.400,0.000
-40944.400,-42132.310,-44084.730,-94703.710,-21674.770,-46107.130,-42525.020,-151434.000,0.000
-40945.040,-42128.640,-44082.230,-94656.480,-21674.630,-46104.080,-42521.920,-151419.900,0.000
-40948.160,-42129.630,-44083.910,-94618.220,-21678.720,-46104.430,-42522.990,-151405.700,0.000
-40948.410,-42129.660,-44079.910,-94570.740,-21677.660,-46102.840,-42515.630,-151390.600,0.000
-40945.540,-42128.850,-44077.350,-94527.270,-21678.320,-46100.610,-42513.700,-151376.300,0.000
-40942.660,-42127.380,-44073.160,-94486.010,-21679.760,-46100.200,-42512.260,-151362.800,0.000
-40940.880,-42127.280,-44071.180,-94442.720,-21683.640,-46101.550,-42514.380,-151349.000,0.000
-40937.950,-42127.000,-44072.170,-94406.120,-21689.150,-46101.690,-42519.960,-151333.900,0.000
-40935.500,-42124.770,-44069.800,-94359.410,-21690.590,-46100.270,-42517.610,-151316.300,0.000
-40933.440,-42122.570,-44069.180,-94311.500,-21693.380,-46098.830,-42519.010,-151296.600,0.000
-40925.650,-42114.550,-44058.850,-94255.340,-21689.350,-46092.460,-42512.260,-151274.300,0.000
-40911.760,-42100.960,-44041.430,-94189.270,-21679.380,-46078.860,-42498.980,-151248.700,0.000
-40896.320,-42087.610,-44026.300,-94135.230,-21669.930,-46062.640,-42487.430,-151221.500,0.000
-40884.940,-42078.610,-44013.670,-94085.510,-21661.160,-46050.630,-42474.040,-151195.500,0.000
-40879.220,-42074.980,-44009.660,-94042.470,-21659.720,-46044.470,-42470.460,-151170.900,0.000
-40874.230,-42069.180,-44003.400,-93992.750,-21657.350,-46038.370,-42463.800,-151145.300,0.000
-40868.350,-42061.510,-43996.240,-93937.890,-21654.820,-46031.410,-42457.430,-151119.000,0.000
-40861.980,-42054.720,-43990.790,-93895.500,-21655.010,-46025.620,-42456.660,-151093.000,0.000
-40853.790,-42044.860,-43978.740,-93846.580,-21649.950,-46017.180,-42446.480,-151065.400,0.000
-40842.140,-42031.410,-43965.320,-93795.610,-21642.750,-46002.840,-42433.210,-151035.600,0.000
-40828.370,-42015.990,-43948.380,-93739.950,-21631.760,-45986.840,-42414.060,-151003.800,0.000
-40817.710,-42004.500,-43936.160,-93683.440,-21624.110,-45975.390,-42400.950,-150971.200,0.000
-40811.300,-41998.500,-43931.460,-93641.340,-21622.900,-45968.420,-42397.250,-150939.000,0.000
-40807.360,-41994.210,-43925.500,-93595.520,-21620.110,-45962.810,-42388.440,-150906.900,0.000
-40802.200,-41989.000,-43921.290,-93549.530,-21618.630,-45955.560,-42382.960,-150874.600,0.000
-40791.040,-41977.480,-43909.530,-93495.950,-21612.680,-45943.730,-42371.440,-150840.600,0.000
-40774.640,-41960.880,-43893.100,-93436.080,-21604.470,-45928.490,-42358.070,-150804.500,0.000
-40756.350,-41942.540,-43877.240,-93386.810,-21596.400,-45911.170,-42346.790,-150767.600,0.000
-40742.170,-41927.030,-43861.610,-93336.210,-21586.630,-45894.810,-42330.450,-150731.000,0.000
-40735.070,-41919.050,-43855.550,-93293.220,-21583.800,-45883.350,-42323.130,-150694.600,0.000
-40729.660,-41911.670,-43848.300,-93249.200,-21579.870,-45873.730,-42313.530,-150656.300,0.000
-40723.550,-41903.060,-43839.390,-93202.840,-21574.710,-45863.700,-42302.890,-150616.200,0.000
-40717.160,-41895.890,-43832.700,-93168.480,-21573.330,-45854.670,-42296.570,-150576.400,0.000
-40707.670,-41886.500,-43820.610,-93125.220,-21568.440,-45843.820,-42283.210,-150536.300,0.000
-40693.410,-41873.530,-43806.980,-93075.550,-21560.550,-45827.540,-42270.430,-150494.400,0.000
-40679.410,-41860.110,-43791.400,-93019.290,-21549.740,-45810.080,-42253.710,-150451.000,0.000
-40671.500,-41852.570,-43783.020,-92965.860,-21545.610,-45798.550,-42242.710,-150407.900,0.000
-40666.480,-41847.300,-43780.450,-92928.940,-21547.920,-45790.480,-42238.780,-150365.400,0.000
-40658.370,-41835.840,-43770.380,-92884.290,-21544.500,-45779.110,-42226.360,-150321.800,0.000
-40645.360,-41819.800,-43757.410,-92835.260,-21538.770,-45763.730,-42215.690,-150276.500,0.000
-40629.880,-41802.920,-43739.260,-92779.930,-21529.310,-45747.760,-42200.490,-150229.100,0.000
-40617.860,-41791.590,-43724.570,-92726.480,-21523.410,-45736.480,-42188.460,-150181.300,0.000
-40608.000,-41783.750,-43714.890,-92689.340,-21522.650,-45728.580,-42183.080,-150134.700,0.000
-40594.980,-41772.110,-43698.920,-92643.840,-21516.670,-45717.820,-42169.200,-150087.900,0.000
-40580.430,-41760.890,-43685.080,-92596.950,-21512.100,-45704.940,-42158.360,-150040.000,0.000
-40566.150,-41749.390,-43670.510,-92546.120,-21506.120,-45690.770,-42143.440,-149990.600,0.000
-40550.430,-41733.540,-43654.590,-92490.240,-21497.260,-45672.210,-42126.120,-149939.200,0.000
-40533.890,-41713.570,-43637.950,-92444.970,-21487.800,-45650.220,-42111.400,-149886.000,0.000
-40520.410,-41693.340,-43618.670,-92398.460,-21477.340,-45630.170,-42092.490,-149831.400,0.000
-40507.860,-41676.370,-43603.780,-92359.240,-21471.210,-45612.940,-42079.750,-149777.600,0.000
-40491.210,-41658.500,-43584.340,-92318.110,-21461.410,-45595.090,-42062.220,-149724.600,0.000
-40470.770,-41640.560,-43562.680,-92272.340,-21449.990,-45576.600,-42043.430,-149671.300,0.000
-40446.840,-41623.960,-43541.090,-92233.530,-21439.720,-45557.830,-42027.980,-149616.000,0.000
-40422.210,-41606.830,-43516.280,-92185.670,-21427.350,-45538.730,-42007.680,-149559.000,0.000
-40401.910,-41591.390,-43499.480,-92142.800,-21422.240,-45520.180,-41994.570,-149502.200,0.000
-40387.830,-41576.300,-43485.730,-92100.600,-21419.370,-45502.110,-41978.740,-149444.300,0.000
-40378.340,-41560.660,-43474.030,-92055.390,-21415.170,-45483.840,-41961.960,-149384.800,0.000
-40369.310,-41543.400,-43462.380,-92020.740,-21408.440,-45463.410,-41946.510,-149325.100,0.000
-40357.890,-41522.730,-43443.080,-91979.660,-21395.350,-45440.700,-41922.710,-149265.000,0.000
-40342.060,-41501.870,-43423.290,-91940.910,-21384.290,-45418.630,-41904.700,-149204.800,0.000
-40322.730,-41482.470,-43400.590,-91899.740,-21373.450,-45399.340,-41886.760,-149144.800,0.000
-40302.410,-41464.880,-43379.730,-91853.410,-21364.910,-45382.450,-41871.420,-149084.800,0.000
-40281.080,-41447.830,-43361.710,-91813.620,-21359.430,-45366.270,-41860.700,-149022.900,0.000
-40260.880,-41430.840,-43341.310,-91764.290,-21351.930,-45350.820,-41844.470,-148958.300,0.000
-40243.570,-41414.590,-43326.580,-91718.500,-21347.940,-45335.460,-41833.050,-148892.900,0.000
-40227.270,-41395.440,-43309.890,-91673.130,-21341.270,-45317.270,-41815.590,-148827.800,0.000
-40211.370,-41375.570,-43292.420,-91626.740,-21332.600,-45295.600,-41794.500,-148762.900,0.000
-40196.300,-41357.980,-43277.160,-91592.730,-21324.540,-45271.600,-41775.850,-148697.300,0.000
-40184.300,-41342.690,-43260.240,-91554.210,-21314.820,-45249.100,-41754.430,-148630.900,0.000
-40174.240,-41329.960,-43247.800,-91520.180,-21310.140,-45230.770,-41742.620,-148564.100,0.000
-40158.400,-41313.160,-43228.630,-91479.650,-21301.300,-45211.500,-41725.570,-148495.900,0.000
-40136.350,-41293.260,-43205.960,-91430.450,-21289.500,-45189.390,-41703.750,-148427.000,0.000
-40114.700,-41275.340,-43187.980,-91391.400,-21281.160,-45167.690,-41684.590,-148357.700,0.000
-40096.230,-41258.770,-43169.340,-91345.310,-21271.750,-45147.730,-41660.480,-148286.900,0.000
-40077.930,-41242.320,-43153.230,-91302.150,-21264.870,-45127.790,-41642.240,-148216.200,0.000
-40057.200,-41220.840,-43131.180,-91254.650,-21253.340,-45104.430,-41618.710,-148145.200,0.000
-40035.230,-41195.080,-43105.880,-91197.640,-21238.460,-45078.040,-41592.680,-148072.500,0.000
-40012.960,-41169.180,-43081.460,-91146.250,-21225.320,-45051.400,-41570.930,-147998.700,0.000
-39992.980,-41146.420,-43056.150,-91087.180,-21213.010,-45028.250,-41547.390,-147924.600,0.000
-39975.030,-41128.210,-43037.440,-91034.320,-21206.910,-45008.340,-41532.660,-147850.400,0.000
-39957.770,-41110.640,-43017.450,-90980.880,-21199.540,-44988.480,-41514.390,-147774.900,0.000
-39944.180,-41096.240,-43000.560,-90924.680,-21193.870,-44970.830,-41497.140,-147699.300,0.000
-39927.110,-41078.880,-42982.500,-90875.590,-21186.810,-44949.590,-41480.210,-147624.000,0.000
-39900.900,-41051.450,-42951.180,-90809.700,-21168.490,-44920.210,-41449.300,-147546.500,0.000
-39873.930,-41024.900,-42922.230,-90747.130,-21153.140,-44892.170,-41424.540,-147468.100,0.000
-39849.910,-41002.000,-42894.860,-90688.750,-21139.780,-44867.540,-41400.440,-147388.300,0.000
-39827.040,-40979.360,-42868.990,-90627.970,-21126.540,-44842.070,-41376.350,-147307.200,0.000
-39805.400,-40956.060,-42846.490,-90579.780,-21115.890,-44815.790,-41355.790,-147227.900,0.000
-39784.910,-40931.590,-42822.040,-90525.780,-21103.480,-44789.840,-41328.640,-147149.700,0.000
-39763.910,-40910.250,-42802.570,-90476.090,-21095.190,-44765.960,-41308.380,-147070.000,0.000
-39741.860,-40890.890,-42780.690,-90427.730,-21086.180,-44744.010,-41288.550,-146988.200,0.000
-39720.080,-40871.450,-42757.770,-90379.000,-21077.220,-44722.270,-41270.250,-146906.100,0.000
-39696.370,-40849.680,-42734.950,-90340.550,-21068.430,-44697.820,-41252.090,-146824.000,0.000
-39670.790,-40824.620,-42707.370,-90290.550,-21054.240,-44670.740,-41223.220,-146739.900,0.000
-39646.090,-40800.110,-42684.780,-90246.950,-21043.540,-44643.900,-41200.500,-146654.800,0.000
-39621.850,-40774.310,-42660.020,-90209.130,-21032.100,-44616.740,-41175.860,-146570.300,0.000
-39599.470,-40749.620,-42635.380,-90169.210,-21021.910,-44591.430,-41152.570,-146486.300,0.000
-39573.940,-40723.010,-42609.570,-90134.300,-21011.560,-44565.320,-41132.530,-146400.700,0.000
-39541.110,-40689.450,-42573.540,-90083.380,-20992.070,-44534.180,-41101.640,-146311.800,0.000
-39510.490,-40659.840,-42543.660,-90040.330,-20977.180,-44504.820,-41077.800,-146223.300,0.000
-39488.160,-40638.890,-42520.090,-90007.510,-20967.770,-44481.590,-41057.050,-146136.900,0.000
-39466.420,-40619.120,-42497.120,-89967.230,-20957.850,-44458.540,-41034.910,-146050.000,0.000
-39437.050,-40591.500,-42469.130,-89924.520,-20942.960,-44428.450,-41008.890,-145960.700,0.000
-39407.680,-40561.490,-42437.360,-89873.640,-20925.000,-44396.270,-40976.220,-145871.000,0.000
-39383.780,-40537.240,-42414.550,-89836.450,-20914.870,-44367.420,-40953.590,-145781.800,0.000
-39358.760,-40511.250,-42388.230,-89799.360,-20902.100,-44338.170,-40926.700,-145691.000,0.000
-39333.320,-40484.600,-42360.360,-89750.390,-20888.410,-44310.100,-40899.570,-145598.900,0.000
-39309.820,-40460.870,-42336.860,-89705.140,-20879.410,-44284.110,-40879.470,-145507.300,0.000
-39287.680,-40438.360,-42311.460,-89648.840,-20869.070,-44257.600,-40854.340,-145414.800,0.000
-39265.380,-40415.750,-42289.030,-89599.050,-20860.260,-44229.490,-40833.660,-145321.800,0.000
-39238.870,-40385.470,-42259.530,-89550.120,-20843.890,-44196.640,-40804.530,-145227.700,0.000
-39211.970,-40352.010,-42228.430,-89492.780,-20824.910,-44163.110,-40771.620,-145133.000,0.000
-39189.890,-40325.310,-42204.070,-89441.940,-20812.490,-44135.180,-40745.170,-145038.900,0.000
-39169.150,-40302.910,-42177.110,-89378.300,-20799.140,-44109.510,-40714.590,-144943.800,0.000
-39142.750,-40277.320,-42148.680,-89314.920,-20785.540,-44079.880,-40688.840,-144847.000,0.000
-39110.960,-40246.070,-42114.100,-89250.360,-20767.690,-44047.010,-40659.070,-144749.100,0.000
-39083.300,-40218.640,-42082.600,-89179.700,-20752.500,-44017.500,-40631.030,-144651.300,0.000
-39061.640,-40195.600,-42058.200,-89119.280,-20743.440,-43991.000,-40609.840,-144553.900,0.000
-39040.520,-40169.690,-42031.230,-89054.090,-20731.960,-43963.550,-40583.130,-144456.000,0.000
-39015.770,-40140.550,-42005.180,-88996.190,-20720.320,-43932.510,-40558.950,-144358.000,0.000
-38985.980,-40108.110,-41972.480,-88938.680,-20702.170,-43896.510,-40526.260,-144258.600,0.000
-38955.640,-40078.470,-41939.340,-88875.000,-20683.760,-43862.090,-40493.290,-144157.800,0.000
-38928.390,-40053.880,-41912.230,-88820.140,-20671.810,-43833.170,-40469.300,-144056.500,0.000
-38904.580,-40030.120,-41884.340,-88758.960,-20659.630,-43806.750,-40442.520,-143955.000,0.000
-38879.630,-40005.160,-41858.180,-88707.450,-20648.680,-43778.430,-40419.890,-143853.900,0.000
-38850.950,-39976.780,-41826.800,-88661.400,-20633.470,-43746.240,-40390.710,-143752.000,0.000
-38824.410,-39950.660,-41797.900,-88612.180,-20620.180,-43714.690,-40362.070,-143649.100,0.000
-38799.300,-39926.810,-41773.710,-88569.520,-20610.140,-43684.290,-40338.820,-143545.400,0.000
-38772.630,-39899.980,-41745.330,-88516.090,-20595.070,-43653.430,-40308.320,-143440.900,0.000
-38746.200,-39872.230,-41721.290,-88470.510,-20583.690,-43623.800,-40283.950,-143336.500,0.000
-38718.250,-39840.890,-41693.210,-88426.140,-20570.580,-43593.230,-40255.570,-143231.300,0.000
-38688.530,-39807.360,-41661.050,-88370.580,-20555.760,-43561.090,-40224.900,-143125.600,0.000
-38656.620,-39772.880,-41627.700,-88320.520,-20541.240,-43526.340,-40197.690,-143020.500,0.000
-38623.430,-39736.970,-41589.000,-88267.630,-20521.780,-43489.070,-40164.260,-142915.000,0.000
-38592.850,-39705.500,-41556.750,-88230.810,-20507.460,-43454.490,-40138.210,-142809.500,0.000
-38562.730,-39676.590,-41524.920,-88201.410,-20493.690,-43422.470,-40108.840,-142702.300,0.000
-38531.340,-39649.640,-41494.270,-88168.510,-20480.560,-43392.480,-40078.830,-142593.700,0.000
-38498.950,-39622.860,-41466.940,-88150.000,-20470.870,-43363.710,-40056.480,-142485.300,0.000
-38467.560,-39593.850,-41435.760,-88132.450,-20457.920,-43334.040,-40029.750,-142377.300,0.000
-38440.050,-39566.860,-41408.540,-88125.840,-20447.020,-43303.210,-40005.790,-142270.000,0.000
-38413.250,-39536.700,-41376.850,-88113.280,-20430.950,-43267.840,-39972.980,-142162.300,0.000
-38382.640,-39500.730,-41338.730,-88071.310,-20408.820,-43227.090,-39933.350,-142052.500,0.000
-38348.200,-39462.780,-41298.850,-88008.600,-20386.470,-43184.700,-39894.790,-141940.600,0.000
-38314.620,-39426.560,-41257.540,-87917.320,-20363.740,-43145.540,-39852.790,-141827.600,0.000
-38283.960,-39397.380,-41225.420,-87821.920,-20348.820,-43112.410,-39822.040,-141714.700,0.000
-38254.280,-39372.140,-41194.490,-87721.420,-20334.840,-43081.570,-39790.170,-141601.200,0.000
-38226.430,-39346.500,-41163.390,-87603.240,-20319.760,-43049.590,-39754.780,-141487.200,0.000
-38199.410,-39316.790,-41132.350,-87473.870,-20304.130,-43015.170,-39720.230,-141372.800,0.000
-38170.700,-39281.980,-41095.030,-87319.230,-20282.910,-42979.440,-39679.900,-141256.300,0.000
-38140.370,-39246.380,-41060.960,-87166.480,-20264.920,-42944.460,-39648.290,-141138.800,0.000
-38109.020,-39208.770,-41025.680,-87019.480,-20246.140,-42907.510,-39613.170,-141021.200,0.000
-38079.110,-39174.090,-40991.950,-86867.820,-20228.300,-42870.000,-39575.190,-140904.200,0.000
-38047.780,-39143.690,-40959.450,-86717.940,-20212.410,-42832.790,-39539.770,-140787.800,0.000
-38011.800,-39109.890,-40919.050,-86550.580,-20190.060,-42793.210,-39495.590,-140669.900,0.000
-37976.340,-39075.740,-40883.030,-86386.630,-20171.710,-42755.450,-39458.470,-140550.500,0.000
-37945.470,-39044.790,-40849.950,-86230.090,-20157.130,-42722.050,-39424.120,-140430.400,0.000
-37917.610,-39016.290,-40818.630,-86070.700,-20144.130,-42690.890,-39392.180,-140310.500,0.000
-37886.990,-38984.990,-40785.100,-85913.380,-20129.190,-42658.760,-39361.750,-140191.100,0.000
-37854.360,-38951.280,-40743.800,-85742.270,-20107.930,-42624.930,-39322.480,-140071.600,0.000
-37823.910,-38921.630,-40707.970,-85577.580,-20091.670,-42591.420,-39290.020,-139952.200,0.000
-37790.210,-38888.840,-40670.010,-85413.980,-20073.210,-42555.070,-39253.710,-139831.800,0.000
-37751.710,-38852.750,-40629.950,-85240.750,-20052.190,-42515.920,-39214.750,-139708.700,0.000
-37716.270,-38821.070,-40596.170,-85077.060,-20037.500,-42479.780,-39183.070,-139584.200,0.000
-37687.200,-38791.020,-40563.600,-84909.940,-20023.880,-42445.410,-39147.700,-139459.500,0.000
-37658.620,-38757.870,-40532.390,-84748.360,-20009.760,-42405.840,-39113.910,-139334.200,0.000
-37628.010,-38721.180,-40495.390,-84587.800,-19989.720,-42362.410,-39074.900,-139208.800,0.000
-37600.340,-38686.380,-40459.880,-84424.590,-19970.330,-42321.850,-39037.860,-139083.800,0.000
-37572.590,-38651.150,-40426.920,-84270.680,-19953.270,-42282.100,-39003.590,-138957.800,0.000
-37538.640,-38611.540,-40386.690,-84106.860,-19931.400,-42241.950,-38960.790,-138830.400,0.000
-37503.670,-38576.010,-40351.470,-83953.690,-19915.930,-42207.200,-38928.220,-138705.300,0.000
-37472.620,-38545.250,-40318.150,-83811.250,-19902.680,-42176.000,-38896.630,-138583.800,0.000
-37441.600,-38513.690,-40283.660,-83664.520,-19887.790,-42142.910,-38862.490,-138462.200,0.000
-37408.350,-38481.530,-40250.510,-83523.450,-19874.620,-42109.100,-38832.160,-138338.100,0.000
-37377.530,-38452.170,-40217.080,-83374.190,-19860.340,-42077.310,-38798.570,-138212.500,0.000
-37349.930,-38425.390,-40188.860,-83229.560,-19849.210,-42045.960,-38771.120,-138086.900,0.000
-37317.010,-38391.150,-40150.940,-83077.810,-19830.470,-42008.600,-38734.480,-137959.300,0.000
-37276.230,-38350.750,-40103.830,-82912.160,-19805.150,-41966.500,-38691.590,-137829.000,0.000
-37234.190,-38312.040,-40058.990,-82758.550,-19783.100,-41925.820,-38654.670,-137698.500,0.000
-37195.260,-38274.720,-40014.920,-82603.160,-19761.380,-41886.620,-38614.840,-137568.200,0.000
-37159.610,-38239.360,-39977.960,-82453.760,-19744.220,-41847.660,-38581.520,-137438.300,0.000
-37125.230,-38202.250,-39939.680,-82302.460,-19724.140,-41806.520,-38543.000,-137308.700,0.000
-37092.610,-38163.640,-39902.220,-82147.290,-19703.140,-41763.920,-38502.470,-137179.600,0.000
-37061.540,-38127.590,-39869.810,-82007.980,-19687.040,-41723.230,-38468.360,-137050.300,0.000
-37029.440,-38094.570,-39833.470,-81860.170,-19669.550,-41684.900,-38429.590,-136919.100,0.000
-36993.570,-38063.260,-39796.530,-81709.350,-19653.460,-41647.080,-38395.160,-136786.200,0.000
-36954.360,-38028.940,-39753.820,-81553.450,-19633.530,-41608.800,-38356.250,-136652.300,0.000
-36920.440,-37997.260,-39715.930,-81398.100,-19617.790,-41575.520,-38322.300,-136519.000,0.000
-36891.210,-37967.460,-39685.550,-81263.450,-19607.450,-41543.610,-38295.940,-136388.100,0.000
-36856.260,-37927.480,-39644.990,-81119.750,-19585.300,-41501.340,-38253.360,-136256.500,0.000
-36817.470,-37882.580,-39602.730,-80974.730,-19560.570,-41452.920,-38209.990,-136122.700,0.000
-36781.280,-37841.140,-39560.930,-80829.800,-19538.090,-41407.790,-38167.980,-135988.400,0.000
-36746.420,-37803.050,-39521.710,-80684.650,-19518.290,-41365.790,-38129.680,-135854.800,0.000
-36708.640,-37763.860,-39484.290,-80556.590,-19499.560,-41322.600,-38095.630,-135720.700,0.000
-36669.400,-37722.990,-39441.870,-80421.650,-19476.540,-41279.860,-38054.580,-135584.900,0.000
-36632.320,-37685.910,-39404.330,-80288.740,-19459.150,-41242.180,-38021.920,-135448.300,0.000
-36598.010,-37651.640,-39367.520,-80157.130,-19444.290,-41207.310,-37988.800,-135311.600,0.000
-36567.430,-37621.200,-39333.920,-80030.130,-19432.130,-41172.790,-37955.400,-135176.200,0.000
-36536.140,-37590.720,-39302.040,-79924.890,-19421.070,-41136.080,-37924.550,-135041.500,0.000
-36500.790,-37555.730,-39262.330,-79811.760,-19403.440,-41097.050,-37885.280,-134905.200,0.000
-36463.910,-37521.140,-39224.640,-79700.320,-19387.130,-41057.250,-37850.800,-134769.300,0.000
-36426.180,-37484.030,-39183.250,-79588.860,-19366.320,-41013.830,-37810.450,-134633.000,0.000
-36389.800,-37444.750,-39141.590,-79472.850,-19342.150,-40969.480,-37768.050,-134494.500,0.000
-36357.940,-37408.550,-39107.500,-79376.080,-19320.650,-40927.940,-37732.670,-134355.900,0.000
-36329.990,-37374.700,-39073.880,-79279.840,-19298.340,-40887.690,-37692.090,-134218.900,0.000
-36299.780,-37340.570,-39041.930,-79185.030,-19280.870,-40847.740,-37656.000,-134082.100,0.000
-36264.020,-37303.750,-39004.630,-79085.200,-19263.200,-40808.320,-37618.390,-133943.200,0.000
-36225.790,-37266.680,-38966.330,-78982.520,-19246.550,-40769.400,-37582.770,-133803.600,0.000
-36183.650,-37225.790,-38926.680,-78894.520,-19230.720,-40726.070,-37548.950,-133664.000,0.000
-36138.750,-37178.950,-38878.410,-78796.950,-19209.250,-40678.050,-37504.030,-133523.300,0.000
-36095.690,-37133.410,-38833.630,-78702.140,-19190.150,-40631.290,-37464.340,-133383.300,0.000
-36051.340,-37086.340,-38785.190,-78605.700,-19165.600,-40583.560,-37420.440,-133242.300,0.000
-36008.620,-37041.420,-38737.400,-78504.230,-19139.800,-40537.090,-37376.350,-133099.900,0.000
-35972.770,-37004.730,-38698.810,-78419.710,-19122.670,-40496.230,-37341.520,-132959.000,0.000
-35938.480,-36970.100,-38658.680,-78326.550,-19104.540,-40455.870,-37300.260,-132819.500,0.000
-35902.700,-36936.520,-38621.690,-78233.470,-19088.950,-40415.590,-37264.640,-132680.100,0.000
-35865.290,-36900.950,-38581.710,-78139.600,-19072.070,-40376.110,-37228.450,-132539.600,0.000
-35823.320,-36860.300,-38536.870,-78035.560,-19051.630,-40334.020,-37188.620,-132397.100,0.000
-35776.980,-36815.810,-38490.350,-77938.100,-19029.720,-40287.660,-37148.370,-132252.700,0.000
-35733.670,-36771.350,-38441.330,-77830.770,-19004.220,-40240.140,-37100.520,-132106.800,0.000
-35697.990,-36732.080,-38401.400,-77727.630,-18984.070,-40195.250,-37060.210,-131961.800,0.000
-35666.170,-36694.540,-38363.060,-77627.020,-18964.500,-40151.560,-37018.290,-131817.800,0.000
-35634.880,-36657.920,-38325.290,-77520.670,-18946.190,-40109.140,-36977.000,-131675.200,0.000
-35601.220,-36622.090,-38289.000,-77422.410,-18930.160,-40068.040,-36941.900,-131533.800,0.000
-35563.180,-36583.900,-38244.930,-77308.120,-18907.160,-40025.130,-36898.050,-131390.700,0.000
-35520.910,-36543.940,-38200.780,-77188.900,-18883.810,-39978.800,-36855.480,-131244.700,0.000
-35476.750,-36501.260,-38154.730,-77069.170,-18859.520,-39930.760,-36808.950,-131096.800,0.000
-35435.720,-36459.320,-38111.620,-76946.280,-18838.560,-39886.190,-36765.640,-130949.900,0.000
-35396.520,-36417.980,-38071.960,-76832.610,-18821.860,-39843.910,-36730.890,-130804.000,0.000
-35356.900,-36374.660,-38026.570,-76704.520,-18800.680,-39800.350,-36689.250,-130656.800,0.000
-35319.100,-36334.210,-37985.520,-76577.650,-18782.500,-39757.690,-36652.500,-130508.900,0.000
-35282.990,-36295.520,-37944.460,-76456.910,-18762.910,-39715.600,-36612.370,-130361.700,0.000
-35246.460,-36257.380,-37902.770,-76336.820,-18741.500,-39672.120,-36568.890,-130215.400,0.000
-35206.920,-36217.970,-37861.140,-76230.810,-18721.300,-39627.200,-36528.700,-130069.400,0.000
-35165.880,-36175.050,-37813.910,-76120.990,-18697.460,-39582.030,-36483.360,-129921.900,0.000
-35125.850,-36133.620,-37772.350,-76026.620,-18677.890,-39537.450,-36445.380,-129773.900,0.000
-35083.490,-36091.180,-37729.730,-75945.800,-18656.720,-39490.660,-36403.510,-129625.700,0.000
-35037.930,-36046.520,-37684.480,-75862.580,-18632.650,-39441.820,-36358.460,-129476.300,0.000
-34993.190,-36003.120,-37642.050,-75791.390,-18611.260,-39393.930,-36319.440,-129325.900,0.000
-34953.340,-35962.700,-37599.270,-75720.220,-18589.640,-39348.750,-36277.100,-129176.700,0.000
-34919.660,-35928.250,-37563.820,-75663.520,-18574.920,-39308.800,-36243.640,-129030.100,0.000
-34887.520,-35894.590,-37526.110,-75607.690,-18559.490,-39270.830,-36207.700,-128882.900,0.000
-34852.890,-35857.870,-37484.030,-75534.220,-18539.420,-39228.700,-36165.550,-128733.800,0.000
-34813.100,-35815.110,-37439.680,-75459.840,-18515.960,-39179.070,-36121.320,-128583.900,0.000
-34770.410,-35767.050,-37390.230,-75372.320,-18487.840,-39125.790,-36069.530,-128433.000,0.000
-34730.360,-35722.750,-37349.590,-75290.660,-18468.850,-39076.790,-36030.130,-128283.200,0.000
-34690.430,-35680.150,-37309.690,-75208.210,-18452.610,-39032.000,-35993.300,-128133.600,0.000
-34647.950,-35637.680,-37266.470,-75106.200,-18433.730,-38989.510,-35954.230,-127982.100,0.000
-34601.580,-35593.760,-37220.590,-74999.520,-18411.840,-38944.380,-35914.050,-127828.900,0.000
-34553.130,-35546.430,-37167.220,-74879.280,-18381.840,-38893.620,-35862.170,-127675.000,0.000
-34508.120,-35502.180,-37119.200,-74765.910,-18355.330,-38843.270,-35815.960,-127521.800,0.000
-34465.900,-35459.010,-37071.070,-74654.150,-18328.990,-38794.250,-35767.540,-127368.900,0.000
-34427.020,-35416.390,-37024.270,-74531.180,-18303.880,-38745.860,-35717.980,-127216.300,0.000
-34391.740,-35376.060,-36983.180,-74411.880,-18285.000,-38699.590,-35675.710,-127064.400,0.000
-34356.090,-35335.890,-36939.170,-74278.910,-18265.500,-38656.220,-35631.370,-126911.500,0.000
-34316.600,-35296.400,-36897.660,-74148.020,-18248.750,-38614.070,-35594.690,-126757.400,0.000
-34269.610,-35251.340,-36849.250,-74014.440,-18225.600,-38565.710,-35550.110,-126601.600,0.000
-34220.480,-35204.520,-36798.590,-73871.710,-18200.210,-38514.500,-35501.270,-126445.400,0.000
-34178.000,-35165.110,-36757.470,-73744.240,-18183.450,-38469.730,-35462.740,-126291.900,0.000
-34138.600,-35126.840,-36715.180,-73610.680,-18163.940,-38427.250,-35419.430,-126138.300,0.000
-34096.660,-35084.830,-36672.320,-73479.880,-18141.270,-38381.480,-35377.160,-125983.200,0.000
-34052.240,-35037.780,-36623.160,-73348.660,-18112.750,-38331.750,-35328.520,-125827.300,0.000
-34009.200,-34991.260,-36572.510,-73205.930,-18084.560,-38282.160,-35279.330,-125671.200,0.000
-33967.180,-34947.210,-36525.400,-73068.230,-18062.200,-38234.250,-35237.490,-125515.100,0.000
-33921.840,-34899.570,-36473.770,-72924.910,-18036.720,-38183.270,-35189.390,-125357.900,0.000
-33876.630,-34852.910,-36428.070,-72801.250,-18016.220,-38132.530,-35149.340,-125201.600,0.000
-33832.330,-34807.120,-36381.700,-72690.290,-17995.540,-38084.030,-35108.340,-125045.500,0.000
-33786.880,-34760.430,-36332.380,-72570.800,-17970.820,-38033.570,-35061.840,-124887.600,0.000
-33743.740,-34716.050,-36287.290,-72459.100,-17948.960,-37983.570,-35018.930,-124728.500,0.000
-33704.900,-34675.340,-36242.910,-72342.700,-17928.550,-37940.060,-34975.260,-124569.700,0.000
-33666.390,-34635.960,-36202.410,-72234.090,-17910.970,-37898.060,-34937.410,-124412.500,0.000
-33624.640,-34591.150,-36156.060,-72121.960,-17886.190,-37847.710,-34888.020,-124255.500,0.000
-33581.560,-34544.660,-36107.430,-71992.120,-17858.070,-37794.030,-34833.200,-124097.700,0.000
-33538.360,-34501.130,-36062.900,-71862.160,-17834.800,-37745.250,-34788.060,-123939.300,0.000
-33496.900,-34458.790,-36016.410,-71719.800,-17811.080,-37700.270,-34741.040,-123779.700,0.000
-33458.140,-34417.690,-35974.140,-71584.240,-17791.580,-37655.690,-34699.490,-123620.600,0.000
-33420.840,-34376.630,-35930.840,-71454.050,-17771.580,-37610.940,-34655.350,-123462.800,0.000
-33384.010,-34335.970,-35887.620,-71318.840,-17750.720,-37566.010,-34610.660,-123305.000,0.000
-33344.910,-34294.520,-35845.600,-71191.980,-17730.950,-37519.020,-34569.590,-123146.200,0.000
-33304.300,-34252.410,-35799.160,-71053.340,-17708.000,-37470.790,-34520.990,-122987.200,0.000
-33261.320,-34209.940,-35755.010,-70915.860,-17687.050,-37421.050,-34476.640,-122827.400,0.000
-33216.520,-34165.040,-35708.190,-70780.470,-17664.470,-37371.410,-34431.980,-122666.600,0.000
-33171.950,-34119.470,-35660.180,-70640.960,-17641.330,-37323.240,-34388.720,-122505.900,0.000
-33122.580,-34069.850,-35609.670,-70511.750,-17615.940,-37269.970,-34344.570,-122344.700,0.000
-33073.660,-34020.130,-35555.540,-70379.190,-17587.040,-37216.470,-34291.620,-122184.000,0.000
-33030.400,-33976.540,-35509.450,-70257.910,-17564.930,-37169.080,-34247.950,-122023.900,0.000
-32988.250,-33932.930,-35462.070,-70138.530,-17541.820,-37122.620,-34202.810,-121861.600,0.000
-32950.790,-33893.660,-35419.070,-70017.820,-17522.300,-37080.020,-34161.280,-121699.200,0.000
-32914.130,-33856.400,-35381.130,-69913.720,-17506.550,-37036.930,-34125.880,-121539.800,0.000
-32868.020,-33807.960,-35330.240,-69794.120,-17477.660,-36980.730,-34072.000,-121380.100,0.000
-32817.460,-33754.360,-35277.720,-69675.410,-17447.170,-36919.430,-34018.020,-121218.400,0.000
-32770.180,-33703.550,-35227.070,-69568.910,-17420.630,-36865.010,-33968.640,-121055.700,0.000
-32726.840,-33657.460,-35180.080,-69469.050,-17398.350,-36817.060,-33923.840,-120893.600,0.000
-32683.940,-33614.140,-35136.790,-69384.750,-17379.720,-36771.360,-33884.820,-120732.600,0.000
-32638.930,-33568.760,-35086.930,-69284.520,-17354.770,-36723.180,-33836.640,-120570.500,0.000
-32593.740,-33524.070,-35039.330,-69182.860,-17330.780,-36672.450,-33792.560,-120408.000,0.000
-32548.200,-33478.790,-34989.780,-69082.230,-17305.320,-36621.000,-33746.150,-120245.100,0.000
-32503.140,-33432.840,-34940.520,-68973.780,-17279.820,-36571.070,-33698.640,-120081.200,0.000
-32460.800,-33389.240,-34897.570,-68877.200,-17259.950,-36524.530,-33658.230,-119918.200,0.000
-32418.340,-33345.590,-34850.770,-68769.020,-17237.460,-36478.470,-33611.570,-119755.400,0.000
-32372.810,-33300.450,-34804.090,-68659.920,-17216.230,-36429.770,-33568.350,-119591.900,0.000
-32324.780,-33252.160,-34752.990,-68551.540,-17192.750,-36378.300,-33521.660,-119428.000,0.000
-32277.200,-33204.150,-34700.440,-68436.540,-17167.810,-36326.450,-33472.840,-119264.400,0.000
-32231.460,-33158.020,-34652.130,-68331.120,-17145.140,-36274.850,-33427.560,-119100.600,0.000
-32187.640,-33111.320,-34602.560,-68215.920,-17119.720,-36223.510,-33376.860,-118935.600,0.000
-32144.950,-33066.480,-34558.530,-68108.410,-17098.170,-36172.950,-33334.500,-118771.000,0.000
-32103.050,-33023.320,-34514.200,-68006.590,-17076.520,-36123.630,-33290.200,-118608.000,0.000
-32061.800,-32980.070,-34469.060,-67895.260,-17053.810,-36075.340,-33242.020,-118444.900,0.000
-32014.640,-32929.770,-34419.610,-67785.780,-17027.710,-36021.580,-33193.180,-118278.300,0.000
-31963.480,-32875.480,-34361.130,-67664.610,-16995.330,-35965.860,-33137.800,-118108.500,0.000
-31919.220,-32831.160,-34312.470,-67559.940,-16972.610,-35917.000,-33095.400,-117941.500,0.000
-31880.810,-32792.800,-34268.440,-67467.330,-16954.850,-35871.280,-33054.800,-117777.600,0.000
-31840.780,-32753.190,-34223.050,-67365.920,-16936.700,-35825.950,-33013.210,-117614.800,0.000
-31796.710,-32709.620,-34176.800,-67272.390,-16917.750,-35779.410,-32974.790,-117452.800,0.000
-31754.800,-32664.390,-34127.940,-67172.020,-16894.940,-35732.720,-32929.290,-117289.900,0.000
-31717.880,-32623.660,-34087.800,-67081.230,-16878.060,-35688.520,-32891.600,-117126.900,0.000
-31676.960,-32578.180,-34042.690,-66986.960,-16855.830,-35638.190,-32845.810,-116962.000,0.000
-31629.040,-32524.920,-33989.270,-66870.780,-16824.970,-35579.000,-32788.990,-116792.500,0.000
-31578.060,-32470.600,-33936.260,-66761.090,-16794.500,-35518.160,-32735.210,-116622.000,0.000
-31528.050,-32418.580,-33881.460,-66649.950,-16764.380,-35461.680,-32680.040,-116453.300,0.000
-31481.880,-32373.760,-33834.710,-66554.990,-16744.120,-35413.830,-32639.050,-116287.700,0.000
-31437.250,-32331.580,-33788.520,-66466.950,-16725.730,-35369.180,-32598.640,-116123.700,0.000
-31395.050,-32290.290,-33743.900,-66365.700,-16706.630,-35323.400,-32554.650,-115958.600,0.000
-31354.650,-32248.940,-33703.980,-66271.660,-16689.730,-35277.090,-32515.240,-115792.300,0.000
-31310.240,-32200.270,-33655.300,-66167.440,-16664.370,-35225.650,-32465.360,-115624.400,0.000
-31262.580,-32148.620,-33605.990,-66066.330,-16637.750,-35169.880,-32415.890,-115455.900,0.000
-31215.490,-32098.460,-33555.030,-65966.550,-16610.140,-35114.960,-32363.370,-115287.600,0.000
-31170.740,-32052.300,-33503.970,-65856.250,-16583.860,-35063.880,-32312.600,-115120.100,0.000
-31128.990,-32012.580,-33459.360,-65759.220,-16565.470,-35018.660,-32273.340,-114953.800,0.000
-31088.600,-31974.790,-33414.770,-65657.770,-16547.380,-34976.360,-32230.680,-114786.900,0.000
-31044.980,-31932.610,-33371.480,-65558.500,-16528.270,-34928.800,-32188.310,-114618.400,0.000
-30997.160,-31882.170,-33321.240,-65460.390,-16501.400,-34872.090,-32136.340,-114449.600,0.000
-30951.440,-31831.180,-33270.360,-65357.480,-16473.300,-34814.400,-32082.130,-114282.200,0.000
-30909.780,-31784.940,-33225.580,-65266.330,-16451.860,-34761.880,-32036.970,-114114.600,0.000
-30867.290,-31737.440,-33175.460,-65162.860,-16427.230,-34710.270,-31986.310,-113944.900,0.000
-30819.850,-31686.740,-33123.740,-65058.460,-16401.210,-34656.210,-31939.120,-113774.700,0.000
-30771.290,-31637.460,-33069.980,-64955.850,-16373.750,-34602.960,-31890.670,-113605.700,0.000
-30728.730,-31596.890,-33022.400,-64848.730,-16351.450,-34555.680,-31845.360,-113438.400,0.000
-30684.950,-31556.810,-32978.970,-64750.880,-16331.450,-34507.700,-31803.690,-113270.800,0.000
-30633.770,-31507.090,-32925.630,-64641.210,-16301.760,-34452.630,-31748.980,-113101.200,0.000
-30584.050,-31457.260,-32876.290,-64539.480,-16276.690,-34399.390,-31701.040,-112932.700,0.000
-30537.940,-31409.790,-32827.940,-64440.650,-16254.830,-34350.620,-31655.380,-112764.500,0.000
-30491.010,-31361.360,-32776.800,-64327.770,-16230.900,-34299.740,-31606.660,-112593.700,0.000
-30443.360,-31311.940,-32726.600,-64223.000,-16207.210,-34244.930,-31559.200,-112423.100,0.000
-30400.600,-31265.600,-32676.120,-64112.130,-16182.750,-34193.640,-31507.980,-112254.700,0.000
-30361.320,-31224.150,-32632.380,-64005.160,-16163.640,-34147.860,-31466.910,-112086.500,0.000
-30314.390,-31175.310,-32580.690,-63892.960,-16136.770,-34096.000,-31419.050,-111913.800,0.000
-30262.980,-31121.230,-32524.610,-63768.780,-16105.340,-34039.120,-31365.790,-111737.800,0.000
-30215.560,-31071.950,-32476.180,-63658.570,-16081.540,-33985.140,-31320.540,-111564.000,0.000
-30168.770,-31022.850,-32424.670,-63541.050,-16055.270,-33930.770,-31268.440,-111392.600,0.000
-30119.060,-30971.430,-32373.490,-63427.660,-16028.410,-33873.430,-31218.390,-111222.400,0.000
-30073.660,-30925.370,-32325.000,-63324.110,-16005.040,-33821.890,-31171.430,-111054.600,0.000
-30039.160,-30892.230,-32285.510,-63223.700,-15992.080,-33784.960,-31135.770,-110890.800,0.000
-30004.780,-30860.140,-32248.700,-63134.160,-15982.940,-33750.570,-31107.840,-110728.600,0.000
-29960.800,-30815.840,-32198.630,-63023.260,-15960.470,-33703.820,-31063.140,-110561.600,0.000
-29912.320,-30765.220,-32146.990,-62905.530,-15933.650,-33647.860,-31014.450,-110388.700,0.000
-29863.230,-30711.330,-32092.880,-62790.330,-15903.710,-33588.980,-30959.420,-110212.600,0.000
-29813.530,-30656.980,-32037.450,-62670.920,-15872.390,-33530.530,-30902.570,-110036.900,0.000
-29764.950,-30606.980,-31987.220,-62564.990,-15845.450,-33474.580,-30853.270,-109864.600,0.000
-29718.120,-30559.330,-31935.430,-62453.550,-15817.580,-33420.900,-30799.250,-109694.900,0.000
-29667.590,-30509.110,-31883.580,-62346.140,-15791.130,-33365.600,-30749.090,-109525.100,0.000
-29608.650,-30449.830,-31822.640,-62237.110,-15758.070,-33303.510,-30691.960,-109352.400,0.000
-29551.850,-30390.840,-31762.350,-62120.210,-15725.070,-33242.490,-30634.420,-109179.100,0.000
-29508.800,-30343.680,-31716.930,-62020.960,-15704.730,-33191.360,-30591.580,-109008.400,0.000
-29475.440,-30304.250,-31675.650,-61919.830,-15687.490,-33145.750,-30548.190,-108838.600,0.000
-29442.010,-30267.820,-31638.030,-61827.840,-15672.340,-33100.920,-30510.130,-108669.400,0.000
-29401.470,-30224.960,-31593.390,-61736.000,-15650.240,-33051.610,-30465.310,-108498.900,0.000
-29351.710,-30171.590,-31538.910,-61623.790,-15618.430,-32993.020,-30409.580,-108324.800,0.000
-29295.520,-30114.170,-31481.580,-61514.710,-15584.750,-32929.010,-30353.400,-108149.500,0.000
-29240.910,-30060.690,-31423.010,-61402.070,-15553.030,-32871.500,-30297.190,-107975.400,0.000
-29193.640,-30017.590,-31376.190,-61303.390,-15534.840,-32827.390,-30259.400,-107804.300,0.000
-29147.540,-29974.910,-31329.780,-61209.050,-15517.510,-32785.300,-30221.840,-107634.800,0.000
-29096.340,-29923.250,-31275.990,-61100.740,-15490.640,-32732.520,-30171.780,-107463.300,0.000
-29045.350,-29869.100,-31223.410,-61002.840,-15463.270,-32673.710,-30120.680,-107291.600,0.000
-28999.730,-29819.110,-31171.820,-60899.050,-15438.070,-32620.060,-30068.760,-107120.700,0.000
-28956.780,-29773.800,-31126.620,-60797.580,-15418.520,-32571.070,-30026.860,-106948.800,0.000
-28915.920,-29729.380,-31080.480,-60698.520,-15395.790,-32519.570,-29979.330,-106775.700,0.000
-28878.130,-29686.000,-31033.860,-60592.820,-15369.890,-32466.510,-29925.950,-106602.400,0.000
-28833.730,-29639.390,-30984.800,-60491.430,-15342.060,-32411.690,-29875.330,-106428.600,0.000
-28778.070,-29586.040,-30924.390,-60372.970,-15307.110,-32355.300,-29818.820,-106254.100,0.000
-28720.970,-29534.510,-30868.680,-60260.930,-15279.280,-32302.850,-29772.900,-106081.600,0.000
-28668.830,-29486.440,-30817.260,-60159.280,-15257.250,-32253.960,-29728.970,-105911.000,0.000
-28622.100,-29441.140,-30768.870,-60053.840,-15238.470,-32207.180,-29685.440,-105741.400,0.000
-28577.920,-29396.160,-30723.880,-59956.970,-15221.370,-32158.950,-29645.820,-105570.200,0.000
-28535.910,-29348.860,-30675.070,-59846.870,-15197.150,-32106.310,-29594.920,-105395.200,0.000
-28495.860,-29302.580,-30630.740,-59740.780,-15173.830,-32050.970,-29545.320,-105219.600,0.000
-28453.740,-29254.500,-30583.030,-59639.200,-15148.030,-31993.890,-29492.470,-105045.500,0.000
-28411.300,-29206.980,-30533.040,-59532.870,-15122.370,-31940.260,-29442.460,-104873.200,0.000
-28366.190,-29158.520,-30482.470,-59436.480,-15097.620,-31886.500,-29397.590,-104701.100,0.000
-28318.140,-29106.530,-30424.900,-59326.880,-15066.270,-31828.450,-29341.000,-104527.200,0.000
-28272.860,-29060.270,-30375.470,-59225.480,-15042.280,-31776.050,-29293.230,-104354.300,0.000
